# XAS / LUCIA / SOLEIL : 
# Date : dim. 30 mai 2021
#
# TARGET : DR08_02_Smaps1_POI6
# Total number of scan(s) : 1
# Scan N° : 1
# Coordinates : 
#               Horizontal : -217.32
#               Vertical : -673.662
#               Depth : 9462.8
#               Rotation : 5.002
# ROI window : 
#               ROI_inf : 490
#               ROI_sup : 525
#
# Start of this scan : 10:56:21
# End of this scan : 11:02:56
#
# I0 current at start (µA) : 0
# USER COMMENTS : 
# 
# EXPERIMENTAL CONFIGURATION : 
# Undulator Harmonic : 5       Offset : nan
# Undulator Polarization : 0
# Low pass filter angle (°) : 0.800863         translation (µm) : -354
# Monochromator Crystal : 1: Si 111
#
# SCAN : 
# Range		From(eV)	To(eV)		Step(eV)	Time(sec)
## 1		2455		2465		1		1
## 2		2465.2		2488		0.2		1
## 3		2489		2525		1		1
#
# Energy	Io		FY		DeadTime		FY_c		TEY		It		Ctr4
2455		36821		264		33.9739		399.842		1143		85		0
2456		36959		286		33.9321		432.888		1105		87		0
2457		37008		298		33.9602		451.243		1087		86		0
2458		37045		276		34.1264		418.984		1058		87		0
2459		37035		246		34.0955		373.267		1064		83		0
2460		37057		263		34.1183		399.201		1038		85		0
2461		37054		277		34.1275		420.509		1044		84		0
2462		37038		288		34.1098		437.091		1037		86		0
2463		37074		311		34.1535		472.311		1037		86		0
2464		37098		351		34.0969		532.6		1025		86		0
2465		37068		354		34.1306		537.427		1034		86		0
2465.2		37073		363		34.1064		550.888		1024		85		0
2465.4		37061		417		34.1622		633.375		1014		85		0
2465.6		37074		476		34.0326		721.569		1019		84		0
2465.8		37070		517		34.0069		783.415		1013		86		0
2466		37084		552		33.9901		836.238		1021		86		0
2466.2		37068		565		34.0739		857.02		1010		86		0
2466.4		37100		632		34.0771		958.696		1021		86		0
2466.6		37075		655		34.2014		995.463		1012		86		0
2466.8		37072		632		34.0979		958.998		1025		84		0
2467		37054		666		33.9911		1008.96		1003		84		0
2467.2		37028		638		34.107		968.237		1015		84		0
2467.4		37038		621		33.935		939.984		996		86		0
2467.6		36991		682		33.9765		1032.97		1006		84		0
2467.8		37013		739		34.1004		1121.4		993		84		0
2468		36971		868		34.0824		1316.8		1003		84		0
2468.2		36938		1018		33.982		1542		997		87		0
2468.4		36917		1151		34.1387		1747.61		987		86		0
2468.6		36877		1256		34.076		1905.23		996		86		0
2468.8		36824		1299		33.8683		1964.26		999		85		0
2469		36701		1378		34.0056		2088.06		992		84		0
2469.2		36631		1379		33.8763		2085.49		995		86		0
2469.4		36532		1420		33.8163		2145.54		971		85		0
2469.6		36456		1390		33.5128		2090.63		980		84		0
2469.8		36377		1459		33.6339		2198.41		980		84		0
2470		36372		1532		33.6667		2309.55		982		84		0
2470.2		36402		1679		33.634		2529.91		977		83		0
2470.4		36436		1795		33.6797		2706.56		972		85		0
2470.6		36476		1876		33.6682		2828.21		962		86		0
2470.8		36530		2000		33.9609		3028.51		987		85		0
2471		36555		2075		33.834		3136.05		977		84		0
2471.2		36747		2137		34.102		3242.89		976		84		0
2471.4		36735		2244		33.998		3399.89		965		86		0
2471.6		36782		2287		33.9814		3464.18		970		85		0
2471.8		36794		2493		33.9825		3776.27		984		87		0
2472		36817		2526		33.9655		3825.27		974		84		0
2472.2		36845		2781		34.0351		4215.88		969		84		0
2472.4		36836		2906		34.0428		4405.89		975		84		0
2472.6		36858		3144		34.1217		4772.43		961		86		0
2472.8		36865		3215		33.997		4870.99		958		87		0
2473		36851		3363		34.0353		5098.18		979		85		0
2473.2		36813		3564		33.9965		5399.72		957		86		0
2473.4		36813		3698		34.2137		5621.23		960		85		0
2473.6		36795		3763		34.0221		5703.43		957		85		0
2473.8		36802		3875		34.1053		5880.6		955		86		0
2474		36799		4035		34.069		6120.03		956		86		0
2474.2		36808		4018		34.332		6118.65		960		86		0
2474.4		36779		3990		34.1638		6060.5		955		87		0
2474.6		36780		4202		34.056		6372.08		947		87		0
2474.8		36778		4353		34.208		6616.3		958		85		0
2475		36776		4500		34.1503		6833.74		950		85		0
2475.2		36775		4495		34.2305		6834.47		947		85		0
2475.4		36745		4649		34.1327		7058.13		954		83		0
2475.6		36748		4600		34.3467		7006.5		943		86		0
2475.8		36754		4608		34.4667		7031.53		947		87		0
2476		36719		4579		34.2498		6964.24		947		85		0
2476.2		36729		4724		34.2758		7187.62		944		86		0
2476.4		36712		4644		34.1388		7051.19		956		86		0
2476.6		36697		4472		34.2641		6802.98		937		85		0
2476.8		36685		4512		34.2423		6861.55		939		85		0
2477		36682		4465		34.282		6794.19		947		85		0
2477.2		36682		4342		33.9433		6573.14		931		86		0
2477.4		36666		4473		33.9942		6776.68		942		84		0
2477.6		36621		4163		34.23		6329.63		940		85		0
2477.8		36644		4161		34.025		6306.93		932		86		0
2478		36624		4059		34.0816		6157.61		916		87		0
2478.2		36653		3943		33.9012		5965.32		913		85		0
2478.4		36638		3838		34.0557		5820.07		945		84		0
2478.6		36658		3830		34.0195		5804.75		919		85		0
2478.8		36650		3702		33.9444		5604.37		929		86		0
2479		36663		3729		34.0587		5655.03		926		86		0
2479.2		36645		3746		33.8573		5663.51		927		86		0
2479.4		36657		3599		34.0539		5457.49		924		84		0
2479.6		36652		3581		33.8522		5413.63		932		84		0
2479.8		36654		3613		34.0901		5481.73		918		84		0
2480		36569		3633		33.8459		5491.72		912		86		0
2480.2		36592		3629		33.8244		5483.89		921		87		0
2480.4		36590		3678		33.9285		5566.7		916		86		0
2480.6		36614		3795		33.8342		5735.59		927		84		0
2480.8		36603		3865		34.0784		5863.03		915		86		0
2481		36625		4064		34.0666		6163.8		919		88		0
2481.2		36626		4031		33.9717		6104.96		910		86		0
2481.4		36635		4373		34.0717		6632.97		920		86		0
2481.6		36624		4377		34.0059		6632.41		908		85		0
2481.8		36623		4366		34.0035		6615.5		925		84		0
2482		36651		4207		34.0267		6376.82		905		85		0
2482.2		36635		4118		34.144		6253.03		901		83		0
2482.4		36618		3939		33.8917		5958.41		907		86		0
2482.6		36624		3720		33.9531		5632.36		893		88		0
2482.8		36642		3511		33.8348		5306.42		913		86		0
2483		36631		3312		33.7488		4999.15		904		86		0
2483.2		36623		3188		33.9457		4826.33		887		87		0
2483.4		36641		2996		33.787		4524.79		883		85		0
2483.6		36661		3031		33.8587		4582.61		901		84		0
2483.8		36662		2963		33.768		4473.67		899		85		0
2484		36697		2824		33.7963		4265.62		895		83		0
2484.2		36693		2793		33.7121		4213.44		875		84		0
2484.4		36713		2763		33.7528		4170.74		887		85		0
2484.6		36723		2814		33.9785		4262.25		899		86		0
2484.8		36695		2767		33.8181		4180.9		886		87		0
2485		36684		2842		33.774		4291.36		893		87		0
2485.2		36694		2856		33.8328		4316.34		879		86		0
2485.4		36693		2681		33.6209		4038.92		890		85		0
2485.6		36689		2755		33.7804		4160.4		889		85		0
2485.8		36653		2794		33.8701		4225.02		884		85		0
2486		36662		2726		33.7743		4116.23		882		86		0
2486.2		36659		2767		33.5789		4165.84		889		86		0
2486.4		36831		2671		33.9153		4041.78		886		87		0
2486.6		36841		2760		33.8879		4174.73		877		88		0
2486.8		36828		2690		33.8556		4066.86		883		87		0
2487		36841		2670		34.1346		4053.72		881		85		0
2487.2		36812		2677		33.8988		4049.85		896		85		0
2487.4		36807		2767		33.8985		4185.99		880		84		0
2487.6		36787		2754		33.8484		4163.17		883		85		0
2487.8		36795		2760		33.8289		4171		884		84		0
2489		36850		2717		33.8926		4109.98		884		87		0
2490		36898		2713		33.9553		4107.82		880		87		0
2491		36871		2988		33.8105		4514.31		878		84		0
2492		36807		3041		33.8373		4596.25		866		85		0
2493		36812		3027		33.804		4572.79		878		86		0
2494		36826		3116		33.8731		4712.15		868		85		0
2495		36807		3207		33.8116		4845.26		873		87		0
2496		36831		3135		33.8953		4742.47		874		86		0
2497		36816		3247		33.9032		4912.49		877		85		0
2498		36841		3213		33.7665		4851.02		878		84		0
2499		36874		3271		34.0522		4959.98		865		86		0
2500		36873		3246		33.9639		4915.49		870		87		0
2501		36865		3231		33.8111		4881.48		874		86		0
2502		36873		3235		33.778		4885.08		873		85		0
2503		36896		3035		33.8249		4586.32		873		84		0
2504		36927		3122		33.8381		4718.73		863		85		0
2505		36965		3055		33.8362		4617.33		865		85		0
2506		36947		3065		33.8327		4632.2		873		85		0
2507		36920		2990		33.6641		4507.36		856		86		0
2508		36939		2963		33.6923		4468.56		853		87		0
2509		37038		3053		33.9044		4619.07		868		84		0
2510		37062		2891		33.8083		4367.62		866		85		0
2511		37095		2834		33.8496		4284.18		866		85		0
2512		37069		2806		33.9713		4249.66		853		86		0
2513		37054		2834		33.8115		4281.71		859		86		0
2514		36997		2720		33.8092		4109.33		851		87		0
2515		37010		2867		33.7884		4330.06		853		84		0
2516		37002		2853		33.7238		4304.71		846		84		0
2517		37014		2818		33.9227		4264.7		861		87		0
2518		37049		2758		33.6703		4158.02		842		86		0
2519		37006		2836		33.7051		4277.85		847		82		0
2520		37014		2746		33.721		4143.09		848		84		0
2521		36988		2832		33.6378		4267.49		842		84		0
2522		36945		2712		33.7855		4095.78		836		85		0
2523		36928		2785		33.655		4197.75		828		88		0
2524		36950		2881		33.5437		4335.18		843		86		0
