# XAS / LUCIA / SOLEIL : 
# Date : dim. 30 mai 2021
#
# TARGET : DR17-04-02-Smap1_POI5
# Total number of scan(s) : 3
# Scan N° : 1
# Coordinates : 
#               Horizontal : -3169.06
#               Vertical : -456.209
#               Depth : 11604.7
#               Rotation : 5.002
# ROI window : 
#               ROI_inf : 490
#               ROI_sup : 525
#
# Start of this scan : 00:46:47
# End of this scan : 00:53:35
#
# I0 current at start (µA) : 0
# USER COMMENTS : 
# 
# EXPERIMENTAL CONFIGURATION : 
# Undulator Harmonic : 5       Offset : nan
# Undulator Polarization : 0
# Low pass filter angle (°) : 0.800959         translation (µm) : -354.5
# Monochromator Crystal : 1: Si 111
#
# SCAN : 
# Range		From(eV)	To(eV)		Step(eV)	Time(sec)
## 1		2450		2465		1		1
## 2		2465.2		2488		0.2		1
## 3		2489		2525		1		1
#
# Energy	Io		FY		DeadTime		FY_c		TEY		It		Ctr4
2450		36906		228		34.2616		346.829		217		83		0
2451		36960		216		34.208		328.308		225		81		0
2452		36931		240		34.2228		364.868		189		80		0
2453		36952		199		34.1771		302.326		186		82		0
2454		36932		201		34.2205		305.566		185		84		0
2455		37018		214		34.2611		325.53		188		82		0
2456		37004		210		34.25		319.392		172		83		0
2457		37053		232		34.4652		354.01		180		83		0
2458		37053		173		34.1407		262.681		184		82		0
2459		37035		194		34.2498		295.056		173		80		0
2460		37034		220		34.3524		335.123		183		82		0
2461		37047		207		34.1065		314.143		189		81		0
2462		37024		201		34.158		305.276		180		83		0
2463		37075		214		34.2948		325.697		175		82		0
2464		37109		242		34.1809		367.675		180		82		0
2465		37203		386		34.4628		588.978		165		81		0
2465.2		37225		350		34.3595		533.208		169		81		0
2465.4		37223		374		34.4801		570.819		173		82		0
2465.6		37253		463		34.3828		705.608		181		84		0
2465.8		37215		511		34.2971		777.743		168		84		0
2466		37212		636		34.3698		969.065		173		81		0
2466.2		37218		694		34.4042		1057.99		176		83		0
2466.4		37213		739		34.2866		1124.58		187		82		0
2466.6		37213		768		34.292		1168.81		181		81		0
2466.8		37211		707		34.4221		1078.11		170		81		0
2467		37217		737		34.3349		1122.36		178		83		0
2467.2		37214		680		34.3509		1035.81		168		82		0
2467.4		37190		625		34.3541		952.077		179		82		0
2467.6		37171		579		34.3116		881.434		166		84		0
2467.8		37154		559		34.23		849.931		172		83		0
2468		37133		486		34.3679		740.491		175		84		0
2468.2		37076		487		34.0287		738.199		173		82		0
2468.4		37074		504		34.234		766.354		169		81		0
2468.6		37009		540		33.9873		818.025		186		80		0
2468.8		36980		519		34.0212		786.617		166		79		0
2469		36895		573		34.0827		869.271		189		81		0
2469.2		36813		515		33.9408		779.603		178		81		0
2469.4		36700		585		33.8213		883.97		175		84		0
2469.6		36645		618		33.746		932.774		174		82		0
2469.8		36559		620		33.598		933.707		170		82		0
2470		36540		585		33.6355		881.495		163		81		0
2470.2		36558		626		33.6878		944.019		155		81		0
2470.4		36598		605		33.6918		912.407		166		83		0
2470.6		36647		538		33.8442		813.231		176		83		0
2470.8		36679		512		33.7939		773.343		168		81		0
2471		36728		468		34.0198		709.303		168		82		0
2471.2		36737		467		33.787		705.299		175		83		0
2471.4		36782		509		33.7316		768.089		170		83		0
2471.6		36800		439		33.7406		662.548		182		85		0
2471.8		36798		443		33.7779		668.961		165		82		0
2472		36817		443		33.7436		668.615		176		81		0
2472.2		36825		436		33.8613		659.22		167		81		0
2472.4		36873		441		33.7713		665.874		174		80		0
2472.6		36872		433		33.6891		652.984		177		83		0
2472.8		36863		450		33.727		679.01		182		84		0
2473		36851		403		33.7698		608.483		178		83		0
2473.2		36837		453		33.6914		683.17		169		83		0
2473.4		36849		396		33.694		597.231		166		85		0
2473.6		36802		452		33.6802		681.546		164		81		0
2473.8		36810		435		33.7578		656.681		174		82		0
2474		36803		468		33.6566		705.421		181		83		0
2474.2		36789		446		33.5542		671.224		167		83		0
2474.4		36760		461		33.7445		695.792		169		82		0
2474.6		36757		447		33.6789		673.994		165		84		0
2474.8		36760		446		33.8604		674.331		170		81		0
2475		36749		499		33.804		753.822		173		81		0
2475.2		36748		426		33.7397		642.919		165		81		0
2475.4		36747		443		33.8551		669.742		178		82		0
2475.6		36752		459		33.6666		691.959		156		82		0
2475.8		36768		432		33.6643		651.233		183		82		0
2476		36731		446		33.652		672.213		182		82		0
2476.2		36741		489		33.6794		737.328		172		80		0
2476.4		36729		463		33.637		697.678		172		80		0
2476.6		36711		496		33.7041		748.16		168		81		0
2476.8		36708		515		33.6634		776.344		175		83		0
2477		36724		488		33.6525		735.521		177		84		0
2477.2		36680		543		33.6913		818.897		167		81		0
2477.4		36705		523		33.8669		790.83		141		82		0
2477.6		36661		478		33.6337		720.245		182		81		0
2477.8		36688		524		33.5899		789.036		169		83		0
2478		36682		453		33.5372		681.584		186		84		0
2478.2		36690		455		33.5749		684.982		165		83		0
2478.4		36695		463		33.6177		697.475		172		81		0
2478.6		36677		471		33.5875		709.203		158		81		0
2478.8		36686		408		33.6222		614.663		182		80		0
2479		36699		521		33.6034		784.679		173		82		0
2479.2		36685		481		33.7425		725.955		164		83		0
2479.4		36697		461		33.4139		692.337		176		83		0
2479.6		36693		510		33.4269		766.075		162		83		0
2479.8		36846		559		33.7788		844.141		189		82		0
2480		36840		539		33.5657		811.328		172		82		0
2480.2		36854		592		33.7599		893.719		180		81		0
2480.4		36835		607		33.7083		915.65		172		84		0
2480.6		36860		623		33.8444		941.719		172		84		0
2480.8		36854		653		33.7921		986.288		172		83		0
2481		36837		698		33.8221		1054.73		173		81		0
2481.2		36844		788		33.8375		1191.01		172		82		0
2481.4		36875		788		33.7557		1189.54		173		83		0
2481.6		36857		878		33.5108		1320.51		165		82		0
2481.8		36879		871		33.7371		1314.46		170		82		0
2482		36878		812		33.636		1223.55		172		81		0
2482.2		36866		785		33.6009		1182.25		180		81		0
2482.4		36891		722		33.9078		1092.41		174		81		0
2482.6		36891		635		33.8237		959.559		172		83		0
2482.8		36935		583		33.8402		881.199		179		83		0
2483		36933		574		33.8697		867.984		169		82		0
2483.2		36911		547		33.7229		825.323		172		82		0
2483.4		36905		506		33.7264		763.501		178		81		0
2483.6		36919		461		33.633		694.622		162		80		0
2483.8		36927		485		33.729		731.843		155		83		0
2484		36964		460		33.7226		694.052		167		82		0
2484.2		36960		414		33.6325		623.799		169		83		0
2484.4		36969		422		33.7232		636.724		166		84		0
2484.6		36972		464		33.8434		701.366		165		84		0
2484.8		36974		420		33.7156		633.634		166		81		0
2485		36965		467		33.6971		704.343		164		82		0
2485.2		36979		431		33.6666		649.748		181		80		0
2485.4		36980		428		33.6332		644.901		171		81		0
2485.6		36962		401		33.7432		605.221		160		83		0
2485.8		36950		456		33.6536		687.301		157		82		0
2486		36929		439		33.5955		661.099		161		83		0
2486.2		36939		436		33.5967		656.594		181		82		0
2486.4		36921		434		33.5501		653.124		192		83		0
2486.6		36919		444		33.4917		667.586		153		83		0
2486.8		36913		454		33.4427		682.119		173		82		0
2487		36927		394		33.5227		592.684		180		81		0
2487.2		36915		445		33.5039		669.212		166		82		0
2487.4		36904		414		33.5878		623.38		170		82		0
2487.6		36909		409		33.6009		615.972		160		83		0
2487.8		36906		425		33.6324		640.373		181		83		0
2489		36942		445		33.478		668.951		187		83		0
2490		37013		421		33.6867		634.865		160		81		0
2491		36992		445		33.6571		670.757		172		80		0
2492		36904		459		33.5114		690.344		163		83		0
2493		36960		413		33.5547		621.563		151		84		0
2494		36986		487		33.6515		734.003		164		82		0
2495		36978		444		33.5259		667.929		165		81		0
2496		37044		467		33.684		704.204		176		82		0
2497		37052		497		33.709		749.725		157		82		0
2498		37048		485		33.7304		731.859		159		83		0
2499		37098		466		33.6903		702.763		160		83		0
2500		37104		487		33.5667		733.066		161		83		0
2501		37109		477		33.7674		720.189		163		81		0
2502		37088		475		33.6494		715.894		155		81		0
2503		37112		424		33.9076		641.526		174		81		0
2504		37149		466		33.6397		702.228		157		82		0
2505		37168		460		33.8392		695.276		171		84		0
2506		37117		422		33.596		635.504		168		83		0
2507		37145		434		33.6145		653.757		157		83		0
2508		37132		451		33.4678		677.868		189		81		0
2509		37234		451		33.725		680.498		174		80		0
2510		37225		438		33.6566		660.202		179		83		0
2511		37228		445		33.5454		669.63		171		84		0
2512		37227		434		33.4614		652.253		161		84		0
2513		37210		416		33.4066		624.686		110		83		0
2514		37131		439		33.4712		659.864		174		82		0
2515		37101		453		33.5765		681.987		192		81		0
2516		37124		391		33.4019		587.104		165		81		0
2517		37139		452		33.4222		678.905		185		82		0
2518		37204		388		33.4262		582.812		182		80		0
2519		37180		411		33.3156		616.336		154		81		0
2520		37200		396		33.5977		596.365		174		83		0
2521		37173		423		33.4886		635.981		162		84		0
2522		37117		438		33.453		658.181		171		83		0
2523		37067		439		33.3158		658.327		153		84		0
2524		37292		429		33.3265		643.434		169		80		0
