# XAS / LUCIA / SOLEIL : 
# Date : sam. 29 mai 2021
#
# TARGET : GFL_PL_11_07_carto2new_S_POI3
# Total number of scan(s) : 1
# Scan N° : 1
# Coordinates : 
#               Horizontal : -35.313
#               Vertical : 152.189
#               Depth : 9059.8
#               Rotation : 5.002
# ROI window : 
#               ROI_inf : 490
#               ROI_sup : 525
#
# Start of this scan : 09:11:53
# End of this scan : 09:18:30
#
# I0 current at start (µA) : 0
# USER COMMENTS : 
# 
# EXPERIMENTAL CONFIGURATION : 
# Undulator Harmonic : 5       Offset : nan
# Undulator Polarization : 0
# Low pass filter angle (°) : 0.800863         translation (µm) : -354
# Monochromator Crystal : 1: Si 111
#
# SCAN : 
# Range		From(eV)	To(eV)		Step(eV)	Time(sec)
## 1		2455		2465		1		1
## 2		2465.2		2488		0.2		1
## 3		2489		2525		1		1
#
# Energy	Io		FY		DeadTime		FY_c		TEY		It		Ctr4
2455		36716		298		28.6194		417.48		300		86		0
2456		36824		326		28.5176		456.056		286		86		0
2457		36882		336		28.6579		470.97		293		86		0
2458		36904		348		28.5936		487.351		289		84		0
2459		36870		358		28.6038		501.427		287		83		0
2460		36881		393		28.278		547.949		284		84		0
2461		36891		400		28.6212		560.391		275		84		0
2462		36915		481		28.6154		673.815		269		83		0
2463		36929		550		28.4753		768.965		278		84		0
2464		36958		621		28.5244		868.829		282		84		0
2465		36949		771		28.7867		1082.66		281		83		0
2465.2		36944		840		28.6493		1177.28		281		84		0
2465.4		36936		891		28.713		1249.88		266		83		0
2465.6		36947		927		28.5749		1297.86		276		84		0
2465.8		36924		983		28.7867		1380.36		267		84		0
2466		36947		999		28.73		1401.71		266		84		0
2466.2		36940		1196		28.7042		1677.52		268		85		0
2466.4		36948		1301		28.8751		1829.18		276		84		0
2466.6		36928		1391		28.7642		1952.67		278		85		0
2466.8		36955		1470		28.9687		2069.51		275		84		0
2467		36926		1662		28.6423		2329.11		269		85		0
2467.2		36923		1767		28.6991		2478.23		276		84		0
2467.4		36890		2007		28.7406		2816.47		272		84		0
2467.6		36892		2386		28.9377		3357.62		280		84		0
2467.8		36880		2914		29.0241		4105.62		271		85		0
2468		36867		3644		29.1188		5141		269		85		0
2468.2		36805		4689		29.2051		6623.36		273		86		0
2468.4		36807		6675		29.4142		9456.58		277		86		0
2468.6		36737		9788		29.7372		13930.6		272		86		0
2468.8		36696		13934		30.4697		20040.2		285		86		0
2469		36576		18100		31.0091		26235.4		256		86		0
2469.2		36495		21087		31.5729		30816.8		273		85		0
2469.4		36384		22598		31.471		32975.8		261		86		0
2469.6		36338		22783		31.567		33292.4		272		86		0
2469.8		36252		23068		31.6081		33729.1		268		84		0
2470		36255		22546		31.3818		32857.2		270		84		0
2470.2		36279		22143		31.4267		32291		284		83		0
2470.4		36329		20818		31.2477		30279.7		270		85		0
2470.6		36363		18640		31.1928		27090.2		266		85		0
2470.8		36409		17206		30.7278		24838.2		256		85		0
2471		36457		15366		30.5384		22121.6		271		84		0
2471.2		36473		14407		30.3065		20672		270		84		0
2471.4		36454		13233		30.1504		18945		272		84		0
2471.6		36492		12393		30.0229		17710.1		265		86		0
2471.8		36492		12039		29.8855		17170.5		273		86		0
2472		36517		11699		29.684		16637.8		266		85		0
2472.2		36511		11810		29.8947		16846.1		271		84		0
2472.4		36558		12043		30.0336		17212.6		274		83		0
2472.6		36704		12454		30.08		17811.8		276		83		0
2472.8		36714		13107		30.0969		18750.2		272		85		0
2473		36700		13898		30.3144		19943.9		269		85		0
2473.2		36676		15179		30.3618		21797		264		85		0
2473.4		36687		15977		30.5815		23015.5		275		87		0
2473.6		36669		16818		30.6306		24244.1		268		86		0
2473.8		36676		17697		30.9332		25623		269		84		0
2474		36677		18811		30.8354		27197.4		263		84		0
2474.2		36657		19507		31.1204		28320.4		267		83		0
2474.4		36657		20518		31.2552		29846.6		271		85		0
2474.6		36644		21022		31.467		30674.3		276		86		0
2474.8		36649		21429		31.3486		31214.2		270		85		0
2475		36649		22034		31.5243		32177.8		275		84		0
2475.2		36643		22601		31.5667		33026.3		273		84		0
2475.4		36617		23002		31.656		33656.2		258		85		0
2475.6		36623		23370		31.7845		34259.1		275		86		0
2475.8		36631		23591		31.6488		34514.4		264		85		0
2476		36624		24092		31.7829		35316.7		269		84		0
2476.2		36621		24196		31.855		35506.6		264		83		0
2476.4		36596		24685		31.8923		36244		276		84		0
2476.6		36613		24983		32.0753		36780.4		265		86		0
2476.8		36582		24824		31.7764		36386.2		266		85		0
2477		36578		25197		31.958		37031.5		264		84		0
2477.2		36566		24694		31.9206		36272.4		271		86		0
2477.4		36566		24871		32.0479		36600.8		271		87		0
2477.6		36525		24751		31.8638		36325.8		270		86		0
2477.8		36552		25029		31.9401		36775		269		87		0
2478		36527		24745		31.8834		36327.4		258		85		0
2478.2		36538		24781		31.838		36356.1		267		84		0
2478.4		36532		24686		31.8651		36231.1		270		83		0
2478.6		36549		24163		31.8215		35440.8		273		83		0
2478.8		36555		23999		31.8605		35220.4		264		85		0
2479		36551		23662		31.6766		34632.3		264		86		0
2479.2		36536		23168		31.6003		33871.5		262		84		0
2479.4		36529		22856		31.5739		33402.5		264		83		0
2479.6		36544		22350		31.4497		32603.8		260		85		0
2479.8		36516		22213		31.3486		32356.2		262		86		0
2480		36517		21504		31.4232		31357.5		266		85		0
2480.2		36487		21484		31.3277		31284.8		271		84		0
2480.4		36496		21010		31.1036		30495		273		84		0
2480.6		36510		20874		31.2119		30345.4		261		85		0
2480.8		36490		20416		31.0278		29600.3		262		86		0
2481		36505		20107		30.981		29132.5		262		86		0
2481.2		36519		19936		31.2409		28994		266		83		0
2481.4		36569		19907		31.0752		28882.2		264		84		0
2481.6		36601		19597		31.1231		28452.2		274		83		0
2481.8		36604		19643		31.0873		28504.2		272		83		0
2482		36632		19626		30.9294		28414.4		258		86		0
2482.2		36639		19304		31.0675		28004.2		270		86		0
2482.4		36620		18959		30.8807		27429.4		259		85		0
2482.6		36620		18567		30.819		26838.3		272		84		0
2482.8		36630		18421		30.698		26580.8		266		84		0
2483		36666		17799		30.9329		25770.6		260		85		0
2483.2		36639		18035		30.7055		26026.6		266		87		0
2483.4		36647		17695		30.8504		25589.4		263		85		0
2483.6		36659		17580		30.912		25445.8		265		84		0
2483.8		36667		17556		30.8055		25371.9		256		84		0
2484		36690		17458		30.7852		25222.9		268		83		0
2484.2		36692		17165		30.6983		24768.5		272		84		0
2484.4		36697		17237		30.8603		24930.7		265		85		0
2484.6		36698		17415		30.7722		25156.1		255		86		0
2484.8		36680		17651		30.7708		25496.5		261		85		0
2485		36661		17645		30.5363		25401.8		263		84		0
2485.2		36673		17644		30.5377		25400.8		260		83		0
2485.4		36669		17788		30.8446		25721.8		269		83		0
2485.6		36666		17800		30.7813		25715.6		264		85		0
2485.8		36646		17795		30.8759		25743.6		260		85		0
2486		36658		17939		30.8975		25960		264		85		0
2486.2		36811		18181		30.856		26294.4		259		85		0
2486.4		36797		18270		30.5807		26318.3		265		84		0
2486.6		36788		18070		30.8433		26129.1		260		84		0
2486.8		36808		18360		30.9357		26583.9		257		86		0
2487		36796		18229		30.8094		26346.1		266		84		0
2487.2		36799		18409		30.814		26608		261		86		0
2487.4		36764		18431		30.8168		26640.9		264		83		0
2487.6		36767		18574		30.8114		26845.4		258		85		0
2487.8		36771		18710		30.7538		27019.5		268		85		0
2488		36781		18458		31.0097		26754.5		263		84		0
2489		36825		18490		30.9236		26767.5		273		83		0
2490		36880		17514		30.7199		25280		253		84		0
2491		36867		17459		30.7337		25205.6		266		84		0
2492		36841		17183		30.7549		24814.8		259		85		0
2493		36849		17293		30.6492		24935.6		262		87		0
2494		36834		17338		30.6027		24983.7		252		85		0
2495		36822		17423		30.6691		25130.2		258		84		0
2496		36817		17902		30.6279		25805.8		260		85		0
2497		36816		17816		30.5935		25669.1		267		84		0
2498		36842		18083		30.7709		26120.5		262		84		0
2499		36861		17980		30.725		25954.5		273		86		0
2500		36900		18261		30.8512		26408.3		255		85		0
2501		36909		17846		30.9044		25828		266		82		0
2502		36913		18248		30.7005		26332.1		268		84		0
2503		36895		18901		30.8678		27340.4		262		84		0
2504		36899		19046		31.0213		27611.4		271		86		0
2505		36937		19524		30.9875		28290.5		266		85		0
2506		36925		19271		31.008		27932.2		268		85		0
2507		36936		19347		30.8747		27988.3		268		83		0
2508		36955		19193		30.9902		27812		269		83		0
2509		37068		18587		30.8518		26880		263		84		0
2510		37083		18485		30.9201		26758.9		265		84		0
2511		37060		18531		30.9298		26829.2		257		86		0
2512		37015		18274		30.8312		26419.4		271		85		0
2513		37010		18217		30.7283		26297.9		265		83		0
2514		36976		17758		30.6757		25615.8		267		83		0
2515		36984		17774		30.6858		25642.6		266		85		0
2516		37031		17518		30.6018		25242.7		264		85		0
2517		37009		17445		30.5899		25133.2		261		86		0
2518		37032		17007		30.8301		24587.3		257		86		0
2519		37057		17175		30.5266		24721.7		260		86		0
2520		37046		16996		30.5508		24472.5		257		84		0
2521		37003		16926		30.4379		24332.2		262		86		0
2522		36995		16831		30.4057		24184.5		263		85		0
2523		36921		17047		30.5302		24538.7		255		85		0
2524		36984		16777		30.3828		24098.9		269		83		0
