# XAS / LUCIA / SOLEIL : 
# Date : sam. 29 mai 2021
#
# TARGET : GFL_PL_08_01_S_pt2
# Total number of scan(s) : 2
# Scan N° : 2
# Coordinates : 
#               Horizontal : 8507
#               Vertical : -3781
#               Depth : 9059.8
#               Rotation : 5.002
# ROI window : 
#               ROI_inf : 490
#               ROI_sup : 525
#
# Start of this scan : 04:58:29
# End of this scan : 05:04:56
#
# I0 current at start (µA) : 0
# USER COMMENTS : 
# 
# EXPERIMENTAL CONFIGURATION : 
# Undulator Harmonic : 5       Offset : nan
# Undulator Polarization : 0
# Low pass filter angle (°) : 0.800863         translation (µm) : -354
# Monochromator Crystal : 1: Si 111
#
# SCAN : 
# Range		From(eV)	To(eV)		Step(eV)	Time(sec)
## 1		2455		2465		1		1
## 2		2465.2		2488		0.2		1
## 3		2489		2525		1		1
#
# Energy	Io		FY		DeadTime		FY_c		TEY		It		Ctr4
2455		36853		171		28.9837		240.79		377		83		0
2456		36982		206		29.1812		290.883		353		86		0
2457		37044		193		29.2294		272.712		352		85		0
2458		37058		178		29.2844		251.712		339		87		0
2459		37056		197		29.073		277.75		346		84		0
2460		37054		209		29.0915		294.746		337		84		0
2461		37084		206		29.0745		290.446		345		85		0
2462		37095		221		29.0238		311.372		340		85		0
2463		37123		187		29.2185		264.193		334		86		0
2464		37158		184		29.2884		260.212		324		86		0
2465		37135		247		29.1754		348.749		333		86		0
2465.2		37130		244		29.246		344.857		334		84		0
2465.4		37150		286		29.1806		403.844		324		85		0
2465.6		37308		282		29.1484		398.015		329		85		0
2465.8		37296		317		29.341		448.634		323		86		0
2466		37310		358		29.4342		507.328		324		85		0
2466.2		37305		366		29.2978		517.664		332		87		0
2466.4		37330		396		29.2526		559.738		327		85		0
2466.6		37294		382		29.4676		541.595		324		84		0
2466.8		37313		418		29.2908		591.153		327		84		0
2467		37289		477		29.2676		674.373		330		85		0
2467.2		37283		446		29.179		629.757		335		84		0
2467.4		37273		441		29.2215		623.07		330		86		0
2467.6		37265		452		29.2719		639.067		328		85		0
2467.8		37260		558		29.1405		787.474		315		86		0
2468		37257		582		29.4034		824.402		323		86		0
2468.2		37209		702		29.2448		992.154		322		87		0
2468.4		37182		785		29.3181		1110.61		318		87		0
2468.6		37142		835		29.1684		1178.85		325		84		0
2468.8		37083		910		29.2368		1285.98		333		83		0
2469		36953		957		29.1361		1350.48		327		84		0
2469.2		36875		902		29.14		1272.93		329		84		0
2469.4		36788		858		29.1486		1210.99		318		85		0
2469.6		36706		932		28.9747		1312.21		319		86		0
2469.8		36665		981		28.7707		1377.24		317		87		0
2470		36663		1055		28.8687		1483.17		324		85		0
2470.2		36699		1162		28.9188		1634.75		326		84		0
2470.4		36726		1329		28.9728		1871.11		324		84		0
2470.6		36784		1368		29.1621		1931.17		320		84		0
2470.8		36811		1454		29.2493		2055.1		325		86		0
2471		36871		1495		29.1397		2109.78		314		87		0
2471.2		36852		1542		29.1837		2177.47		349		84		0
2471.4		36857		1563		29.0389		2202.62		332		85		0
2471.6		36903		1733		29.073		2443.36		323		85		0
2471.8		36903		1774		29.1284		2503.12		317		87		0
2472		36929		1797		29.0712		2533.53		324		86		0
2472.2		36923		1966		29.0375		2770.48		340		86		0
2472.4		36951		2043		29.2464		2887.49		322		83		0
2472.6		36957		2312		29.1653		3263.94		333		83		0
2472.8		36961		2347		29.1169		3311.08		326		84		0
2473		36952		2418		29.0525		3408.15		342		87		0
2473.2		36943		2523		29.1235		3559.71		322		87		0
2473.4		36928		2601		29.1957		3673.5		303		87		0
2473.6		36932		2593		29.2085		3662.87		316		85		0
2473.8		36899		2712		29.2109		3831.1		323		85		0
2474		36901		2730		29.3692		3865.17		329		84		0
2474.2		36903		2873		29.3379		4065.83		309		86		0
2474.4		36860		2884		29.1901		4072.88		327		86		0
2474.6		36898		2925		29.1659		4129.37		308		86		0
2474.8		36887		3068		29.1429		4329.84		317		85		0
2475		36869		3140		29.3261		4442.94		319		86		0
2475.2		36878		3118		29.2892		4409.51		311		85		0
2475.4		36840		3181		29.1706		4491.07		321		86		0
2475.6		36849		3204		29.2486		4528.53		325		87		0
2475.8		36852		3236		29.2671		4574.96		318		87		0
2476		36831		3245		29.1898		4582.67		317		86		0
2476.2		36832		3237		29.389		4584.27		320		85		0
2476.4		36819		3193		29.3338		4518.43		322		84		0
2476.6		36809		3191		29.109		4501.28		310		85		0
2476.8		36803		3168		29.1574		4471.88		328		87		0
2477		36803		3185		29.1883		4497.85		310		88		0
2477.2		36762		3085		29.2641		4361.29		322		86		0
2477.4		36776		3067		29.2844		4337.09		322		85		0
2477.6		36736		3034		29.2629		4289.12		323		84		0
2477.8		36766		2979		29.1683		4205.75		310		85		0
2478		36750		2836		29.1938		4005.3		318		85		0
2478.2		36834		2830		29.2764		4001.5		323		84		0
2478.4		36903		2868		29.3676		4060.46		335		84		0
2478.6		36919		2759		29.1527		3894.29		313		87		0
2478.8		36921		2643		29.2908		3737.84		324		86		0
2479		36933		2669		29.2109		3770.36		331		87		0
2479.2		36923		2549		29.2897		3604.85		327		87		0
2479.4		36918		2595		29.131		3661.69		321		84		0
2479.6		36928		2524		29.3094		3570.49		317		84		0
2479.8		36892		2677		29.1744		3779.71		316		84		0
2480		36857		2567		29.0944		3620.31		333		84		0
2480.2		36840		2637		29.0645		3717.46		325		87		0
2480.4		36846		2612		29.1391		3686.09		313		87		0
2480.6		36844		2616		29.2299		3696.47		319		85		0
2480.8		36856		2668		29.1576		3766.11		321		86		0
2481		36870		2788		29.1415		3934.6		329		86		0
2481.2		36867		2793		29.098		3939.24		323		85		0
2481.4		36880		2921		29.4296		4139.13		333		87		0
2481.6		36897		3097		29.1486		4371.12		317		86		0
2481.8		36900		2984		29.165		4212.6		326		86		0
2482		36912		3003		29.183		4240.51		310		89		0
2482.2		36909		2834		29.2843		4007.6		324		85		0
2482.4		36906		2705		29.2245		3821.94		316		82		0
2482.6		36928		2578		29.1758		3640		324		85		0
2482.8		36946		2436		29.0358		3432.72		319		87		0
2483		36934		2332		29.1224		3290.18		317		88		0
2483.2		36942		2188		29.1467		3088.07		322		87		0
2483.4		36968		2173		29.2437		3071.11		308		86		0
2483.6		36982		2153		29.2448		3042.89		332		85		0
2483.8		37005		2120		29.1628		2992.78		310		84		0
2484		37022		2057		29.1532		2903.45		324		84		0
2484.2		37022		2035		29.1015		2870.3		326		85		0
2484.4		37022		2021		29.2131		2855.05		313		85		0
2484.6		37030		2026		29.052		2855.61		317		84		0
2484.8		37014		2001		29.1181		2823		316		85		0
2485		37013		1994		29.0413		2810.09		314		87		0
2485.2		37003		1992		29.1899		2813.16		304		86		0
2485.4		37031		2013		29.167		2841.9		317		87		0
2485.6		37006		1927		29.1696		2720.58		322		87		0
2485.8		36995		1969		28.8637		2767.93		319		84		0
2486		37016		1930		29.0087		2718.64		318		84		0
2486.2		37000		2006		28.9655		2823.98		318		85		0
2486.4		37019		1963		29.1349		2770.05		318		85		0
2486.6		37003		1954		29.0686		2754.78		310		87		0
2486.8		36996		2026		29.0925		2857.24		306		86		0
2487		37021		1942		29.0146		2735.77		314		86		0
2487.2		37003		1947		29.058		2744.49		308		86		0
2487.4		36983		2005		29.3245		2836.91		320		86		0
2487.6		36975		1938		29.0615		2731.95		317		86		0
2487.8		36982		1982		29.0592		2793.88		319		84		0
2488		36987		1865		29.0453		2628.44		327		85		0
2489		37050		2027		29.0342		2856.31		307		85		0
2490		37110		2066		29.2018		2918.15		316		85		0
2491		37117		2123		28.9923		2989.82		317		87		0
2492		37086		2115		28.9715		2977.68		324		86		0
2493		37097		2201		29.1199		3105.24		314		86		0
2494		37103		2133		29.149		3010.54		317		84		0
2495		37081		2203		29.0968		3107.05		325		85		0
2496		37079		2284		29.0973		3221.32		324		88		0
2497		37104		2306		29.12		3253.39		309		88		0
2498		37127		2283		29.1313		3221.45		326		86		0
2499		37158		2295		29.0959		3236.77		317		86		0
2500		37181		2235		28.951		3145.72		314		88		0
2501		37220		2261		29.1188		3189.84		315		85		0
2502		37215		2247		29.0192		3165.64		320		85		0
2503		37180		2280		29.2388		3222.11		326		83		0
2504		37182		2186		29.1425		3085.06		311		85		0
2505		37221		2098		29.3235		2968.45		322		87		0
2506		37367		2168		29.2189		3062.97		313		86		0
2507		37397		2151		29.1265		3034.99		306		85		0
2508		37388		2071		29.1044		2921.2		323		85		0
2509		37472		2043		29.2292		2886.78		332		83		0
2510		37479		2095		29.1191		2955.66		310		87		0
2511		37470		2056		29.0983		2899.79		316		87		0
2512		37439		1970		29.1575		2780.82		311		85		0
2513		37444		2036		29.2273		2876.82		320		84		0
2514		37429		2039		29.1575		2878.21		319		86		0
2515		37441		2015		29.2095		2846.43		312		86		0
2516		37471		2068		29.0835		2916.1		319		85		0
2517		37456		2087		29.0795		2942.73		310		87		0
2518		37456		1969		29.0579		2775.5		317		85		0
2519		37466		2001		29.1292		2823.45		326		86		0
2520		37510		1996		29.1417		2816.89		320		86		0
2521		37469		1987		28.9717		2797.48		310		87		0
2522		37461		2012		29.0224		2834.7		318		85		0
2523		37404		2023		29.0528		2851.42		324		85		0
2524		37471		2061		29.098		2906.83		313		84		0
