# XAS / LUCIA / SOLEIL : 
# Date : sam. 29 mai 2021
#
# TARGET : GFL_PL_08_01_S_pt1
# Total number of scan(s) : 2
# Scan N° : 2
# Coordinates : 
#               Horizontal : 8429
#               Vertical : -3781
#               Depth : 9059.8
#               Rotation : 5.002
# ROI window : 
#               ROI_inf : 490
#               ROI_sup : 525
#
# Start of this scan : 04:45:17
# End of this scan : 04:51:43
#
# I0 current at start (µA) : 0
# USER COMMENTS : 
# 
# EXPERIMENTAL CONFIGURATION : 
# Undulator Harmonic : 5       Offset : nan
# Undulator Polarization : 0
# Low pass filter angle (°) : 0.800959         translation (µm) : -354
# Monochromator Crystal : 1: Si 111
#
# SCAN : 
# Range		From(eV)	To(eV)		Step(eV)	Time(sec)
## 1		2455		2465		1		1
## 2		2465.2		2488		0.2		1
## 3		2489		2525		1		1
#
# Energy	Io		FY		DeadTime		FY_c		TEY		It		Ctr4
2455		36847		185		28.1889		257.62		376		84		0
2456		36972		171		28.1892		238.126		362		85		0
2457		37052		192		28.0303		266.779		357		86		0
2458		37062		187		28.1775		260.364		339		87		0
2459		37046		177		28.2914		246.832		343		84		0
2460		37069		184		28.083		255.85		340		84		0
2461		37079		169		28.2313		235.479		347		83		0
2462		37111		187		28.2317		260.561		332		85		0
2463		37121		203		28.1161		282.4		320		85		0
2464		37150		197		28.1057		274.013		327		86		0
2465		37124		251		28.0478		348.843		334		85		0
2465.2		37131		223		27.8694		309.161		320		84		0
2465.4		37277		286		28.2342		398.518		327		85		0
2465.6		37296		288		28.1244		400.692		332		85		0
2465.8		37290		278		28.1514		386.925		314		87		0
2466		37302		350		28.1379		487.044		324		87		0
2466.2		37279		353		28.2094		491.708		320		85		0
2466.4		37304		346		28.1412		481.5		330		85		0
2466.6		37285		403		28.1702		561.048		316		83		0
2466.8		37293		410		28.1708		570.798		320		85		0
2467		37266		382		28.0934		531.245		325		86		0
2467.2		37262		431		28.1684		600.015		325		85		0
2467.4		37270		437		28.1498		608.21		317		86		0
2467.6		37249		490		28.1323		681.809		332		88		0
2467.8		37249		580		28.1812		807.588		318		85		0
2468		37236		603		28.0173		837.701		324		84		0
2468.2		37192		703		28.2108		979.255		327		85		0
2468.4		37155		828		28.1144		1151.83		325		84		0
2468.6		37131		870		28.1206		1210.36		314		87		0
2468.8		37057		903		28.1291		1256.42		329		86		0
2469		36957		886		27.9701		1230.05		322		86		0
2469.2		36865		942		27.9639		1307.68		342		85		0
2469.4		36778		914		27.946		1268.49		307		87		0
2469.6		36703		937		28.0264		1301.87		316		86		0
2469.8		36650		929		27.6502		1284.04		323		85		0
2470		36630		1076		27.7772		1489.83		328		84		0
2470.2		36690		1131		27.7543		1565.49		327		85		0
2470.4		36710		1219		27.7638		1687.52		321		85		0
2470.6		36773		1314		27.8677		1821.65		314		86		0
2470.8		36809		1386		28.0337		1925.9		331		86		0
2471		36854		1438		27.9468		1995.75		310		85		0
2471.2		36849		1436		27.9304		1992.52		328		84		0
2471.4		36845		1474		27.7196		2039.28		313		84		0
2471.6		36881		1668		27.8977		2313.38		325		85		0
2471.8		36887		1664		28.0523		2312.79		326		85		0
2472		36893		1758		27.8284		2435.86		324		86		0
2472.2		36909		1874		28.0155		2603.34		334		84		0
2472.4		36926		2000		27.8827		2773.26		315		83		0
2472.6		36947		2236		27.9984		3105.49		334		84		0
2472.8		36944		2352		28.1519		3273.57		322		83		0
2473		36932		2388		28.087		3320.68		328		86		0
2473.2		36911		2500		27.986		3471.55		319		87		0
2473.4		36896		2465		27.8599		3416.96		340		87		0
2473.6		36888		2634		27.9656		3656.59		308		86		0
2473.8		36914		2647		28.153		3684.22		320		86		0
2474		36866		2609		28.0257		3624.9		333		84		0
2474.2		36893		2792		27.8366		3869		331		83		0
2474.4		36861		2801		27.9238		3886.16		324		84		0
2474.6		36858		2983		28.1595		4152.25		320		86		0
2474.8		36855		2916		27.8982		4044.28		328		85		0
2475		36859		3034		28.0402		4216.24		321		84		0
2475.2		36850		2952		28.2556		4114.61		328		84		0
2475.4		36827		3030		28.2537		4223.22		319		84		0
2475.6		36826		3135		28.1021		4360.35		314		86		0
2475.8		36835		3172		28.0094		4406.13		319		86		0
2476		36816		3247		28.0399		4512.23		314		85		0
2476.2		36796		3223		28.1252		4484.19		309		83		0
2476.4		36805		3169		27.9895		4400.75		323		83		0
2476.6		36802		3064		28.0636		4259.32		313		84		0
2476.8		36773		3202		28.0678		4451.42		329		85		0
2477		36791		3113		28.0381		4325.9		313		86		0
2477.2		36753		3022		28.1421		4205.52		327		86		0
2477.4		36783		3068		28.1011		4267.1		311		86		0
2477.6		36725		2943		28.0373		4089.62		329		85		0
2477.8		36750		3004		28.1495		4180.9		314		84		0
2478		36722		2923		27.9439		4056.56		315		84		0
2478.2		36718		2821		28.0565		3921.13		332		85		0
2478.4		36737		2699		28.0181		3749.55		304		86		0
2478.6		36734		2805		28.1266		3902.7		309		86		0
2478.8		36883		2596		28.092		3610.17		311		84		0
2479		36910		2643		27.9488		3668.22		330		85		0
2479.2		36897		2572		28.1572		3580.04		326		84		0
2479.4		36908		2584		27.886		3583.21		337		84		0
2479.6		36922		2657		28.091		3694.95		321		85		0
2479.8		36921		2652		28.1141		3689.18		322		85		0
2480		36867		2656		28.1593		3697.07		318		84		0
2480.2		36880		2668		27.9737		3704.2		331		85		0
2480.4		36857		2667		28.1312		3710.93		319		84		0
2480.6		36881		2700		28.0817		3754.26		321		85		0
2480.8		36861		2715		28.2342		3783.14		312		84		0
2481		36883		2874		28.2158		4003.67		319		84		0
2481.2		36876		2806		28.2186		3909.09		311		84		0
2481.4		36918		3068		28.1005		4267.07		320		87		0
2481.6		36905		3032		28.0877		4216.25		314		86		0
2481.8		36898		3017		28.2881		4207.11		319		86		0
2482		36914		2876		28.0599		3997.77		313		84		0
2482.2		36928		2823		28.0714		3924.72		311		84		0
2482.4		36915		2740		27.9267		3801.68		322		83		0
2482.6		36953		2646		28.0548		3677.8		323		85		0
2482.8		36949		2512		28.1546		3496.39		300		86		0
2483		36961		2347		28.028		3260.99		312		87		0
2483.2		36965		2221		27.9236		3081.45		317		87		0
2483.4		36980		2169		28.0313		3013.81		319		87		0
2483.6		36998		2130		28.1133		2963		312		85		0
2483.8		37013		2146		28.0903		2984.3		315		85		0
2484		37024		1988		28.053		2763.15		317		85		0
2484.2		37036		1931		28.0021		2682.02		312		84		0
2484.4		37033		1984		27.9419		2753.33		318		85		0
2484.6		37058		1997		28.0177		2774.29		324		86		0
2484.8		37019		2024		28.0875		2814.53		325		86		0
2485		37020		1974		28.0277		2742.72		318		85		0
2485.2		37015		1960		27.9944		2722.01		313		85		0
2485.4		37015		2018		27.868		2797.65		319		85		0
2485.6		37017		1941		27.9788		2695.04		320		84		0
2485.8		36986		1884		27.8116		2609.84		317		84		0
2486		37007		1988		27.9995		2761.09		305		85		0
2486.2		36993		1931		28.0649		2684.37		306		86		0
2486.4		37015		1913		28.0449		2658.6		300		86		0
2486.6		36995		1923		28.0252		2671.77		306		87		0
2486.8		36998		1911		27.9944		2653.96		307		87		0
2487		37006		1921		28.0051		2668.25		302		85		0
2487.2		36999		1895		27.9174		2628.93		318		85		0
2487.4		36976		1919		27.8346		2659.17		313		84		0
2487.6		36986		1929		28.0018		2679.23		310		84		0
2487.8		36985		1864		28.0478		2590.61		311		86		0
2488		36993		1990		27.9879		2763.42		321		86		0
2489		37052		1978		27.9562		2745.55		322		84		0
2490		37114		2012		28.1778		2801.36		312		83		0
2491		37103		2021		28.1399		2812.41		309		84		0
2492		37082		2131		27.9867		2959.18		315		85		0
2493		37081		2059		27.982		2859.01		322		86		0
2494		37094		2090		28.1717		2909.72		314		86		0
2495		37061		2239		27.8804		3104.57		306		85		0
2496		37090		2270		27.9623		3151.13		301		85		0
2497		37105		2244		27.9134		3112.92		311		84		0
2498		37133		2250		28.0807		3128.51		314		85		0
2499		37159		2265		28.0638		3148.62		312		86		0
2500		37174		2228		27.9199		3091.01		307		86		0
2501		37212		2232		27.8728		3094.53		316		83		0
2502		37203		2197		27.7597		3041.24		312		84		0
2503		37170		2226		28.0804		3095.12		314		83		0
2504		37190		2154		27.9355		2988.99		313		86		0
2505		37205		2178		27.9387		3022.42		304		85		0
2506		37209		2112		27.8484		2927.17		318		84		0
2507		37223		2047		27.8528		2837.25		312		84		0
2508		37227		2015		27.9		2794.73		311		85		0
2509		37321		2026		27.9536		2812.08		314		86		0
2510		37495		2096		28.0409		2912.77		316		85		0
2511		37474		2067		28.0551		2873.03		318		85		0
2512		37440		2055		27.7327		2843.61		310		83		0
2513		37427		2001		27.8521		2773.47		313		83		0
2514		37410		1940		27.9963		2694.3		321		83		0
2515		37428		1985		27.9446		2754.83		311		86		0
2516		37452		1959		27.9061		2717.29		315		86		0
2517		37435		1983		27.8138		2747.06		309		87		0
2518		37441		1969		28.0324		2735.96		316		83		0
2519		37455		1889		27.9977		2623.53		324		84		0
2520		37478		1953		28.0835		2715.65		321		86		0
2521		37449		1933		28.1051		2688.65		312		86		0
2522		37452		1968		27.8629		2728.14		318		83		0
2523		37393		2039		27.8726		2826.94		312		85		0
2524		37458		1945		27.6872		2689.7		328		84		0
