# XAS / LUCIA / SOLEIL : 
# Date : sam. 29 mai 2021
#
# TARGET : GFL_PL_11_07_S_carto2b_obl_pt8
# Total number of scan(s) : 2
# Scan N° : 1
# Coordinates : 
#               Horizontal : -20
#               Vertical : 130
#               Depth : 9059.8
#               Rotation : 5.002
# ROI window : 
#               ROI_inf : 490
#               ROI_sup : 525
#
# Start of this scan : 04:24:49
# End of this scan : 04:31:25
#
# I0 current at start (µA) : 0
# USER COMMENTS : 
# 
# EXPERIMENTAL CONFIGURATION : 
# Undulator Harmonic : 5       Offset : nan
# Undulator Polarization : 0
# Low pass filter angle (°) : 0.800959         translation (µm) : -354
# Monochromator Crystal : 1: Si 111
#
# SCAN : 
# Range		From(eV)	To(eV)		Step(eV)	Time(sec)
## 1		2455		2465		1		1
## 2		2465.2		2488		0.2		1
## 3		2489		2525		1		1
#
# Energy	Io		FY		DeadTime		FY_c		TEY		It		Ctr4
2455		36908		259		28.8296		363.915		321		87		0
2456		37016		268		28.8528		376.684		306		87		0
2457		37095		273		28.9372		384.167		312		85		0
2458		37113		288		28.9866		405.557		307		85		0
2459		37109		328		28.8878		461.243		302		83		0
2460		37108		320		29.0383		450.948		283		84		0
2461		37115		333		28.933		468.572		290		85		0
2462		37128		358		29.1403		505.224		285		86		0
2463		37154		427		28.7729		599.491		295		85		0
2464		37178		540		28.9868		760.422		291		86		0
2465		37177		618		28.9893		870.292		288		85		0
2465.2		37172		662		29.0968		933.667		289		84		0
2465.4		37167		653		29.0091		919.836		287		84		0
2465.6		37183		736		28.9394		1035.74		291		85		0
2465.8		37154		803		28.8961		1129.33		298		86		0
2466		37179		831		29.0304		1170.92		292		87		0
2466.2		37156		921		28.935		1296		287		86		0
2466.4		37183		1005		29.0101		1415.7		293		83		0
2466.6		37158		1115		28.968		1569.72		297		83		0
2466.8		37184		1281		29.1097		1807.02		289		85		0
2467		37159		1241		29.0317		1748.67		288		86		0
2467.2		37143		1440		28.9278		2026.11		293		85		0
2467.4		37144		1574		29.0378		2218.08		272		85		0
2467.6		37114		1727		28.9204		2429.67		293		86		0
2467.8		37117		2200		29.1639		3105.76		287		84		0
2468		37088		2681		29.0993		3781.35		282		85		0
2468.2		37068		3519		29.2992		4977.32		298		86		0
2468.4		37037		4933		29.3789		6985.17		278		85		0
2468.6		37002		7284		29.5921		10345.4		292		86		0
2468.8		36942		10116		30.2377		14500.7		277		84		0
2469		36832		12763		30.5477		18376.6		287		84		0
2469.2		36737		14905		30.842		21552.1		286		84		0
2469.4		36645		15876		30.882		22969.4		295		84		0
2469.6		36596		16497		30.8876		23869.8		287		86		0
2469.8		36525		16568		30.8619		23963.6		282		86		0
2470		36490		16305		30.9104		23599.8		286		85		0
2470.2		36544		15961		30.7124		23035.9		289		83		0
2470.4		36576		15276		30.8258		22083.4		295		84		0
2470.6		36642		14269		30.5558		20547.4		274		86		0
2470.8		36666		13242		30.3745		19018.9		304		85		0
2471		36707		12154		30.233		17420.8		291		84		0
2471.2		36708		11248		30.0413		16078.1		287		85		0
2471.4		36727		10750		30.0341		15364.6		286		85		0
2471.6		36731		10045		30.0632		14363		282		86		0
2471.8		36765		9655		29.7636		13746.4		286		86		0
2472		36776		9639		29.8433		13739.2		281		86		0
2472.2		36790		9705		29.732		13811.4		298		84		0
2472.4		36803		9747		30.0028		13924.8		281		83		0
2472.6		36830		10352		29.9844		14785.3		293		83		0
2472.8		36817		10878		29.9158		15521.3		287		85		0
2473		36816		11296		30.0039		16138		284		86		0
2473.2		36789		12071		30.1746		17287.4		285		86		0
2473.4		36795		12675		30.3084		18187.3		286		87		0
2473.6		36788		13367		30.2516		19164.6		283		84		0
2473.8		36782		14166		30.5773		20405.4		295		83		0
2474		36775		14875		30.5984		21433.2		283		84		0
2474.2		36767		15341		30.7454		22151.6		291		86		0
2474.4		36731		15977		30.7782		23080.9		286		85		0
2474.6		36768		16764		30.7721		24215.7		277		88		0
2474.8		36744		16867		31.0049		24446.7		286		87		0
2475		36888		17336		31.051		25143.2		290		85		0
2475.2		36890		17597		31.215		25582.6		285		84		0
2475.4		36865		17883		31.2547		26013.4		288		86		0
2475.6		36884		18242		31.2757		26543.7		283		86		0
2475.8		36869		18617		31.241		27075.7		290		84		0
2476		36869		18680		31.2346		27164.8		282		83		0
2476.2		36880		19256		31.3497		28049.4		287		83		0
2476.4		36869		19464		31.2996		28331.7		293		84		0
2476.6		36874		19454		31.6394		28457.9		291		85		0
2476.8		36828		19336		31.3527		28167.2		277		86		0
2477		36842		19717		31.4409		28759.1		284		87		0
2477.2		36809		19464		31.3311		28344.7		278		87		0
2477.4		36823		19226		31.4574		28049.7		287		85		0
2477.6		36759		19400		31.2518		28218.9		280		85		0
2477.8		36792		19455		31.4827		28394.3		282		87		0
2478		36803		19059		31.3967		27781.5		282		86		0
2478.2		36802		19107		31.1201		27739.6		289		86		0
2478.4		36808		18901		31.2445		27490.2		282		85		0
2478.6		36805		19103		31.3067		27809.1		285		83		0
2478.8		36817		18697		31.2117		27180.5		283		85		0
2479		36815		18363		31.2228		26699.2		289		85		0
2479.2		36816		18284		31.0681		26524.7		277		86		0
2479.4		36815		18011		31.1137		26146		286		85		0
2479.6		36820		17457		31.1379		25350.7		288		85		0
2479.8		36820		17226		30.9698		24954.3		279		85		0
2480		36788		16922		30.879		24481.7		286		83		0
2480.2		36790		16601		30.8386		24003.3		277		83		0
2480.4		36773		16283		30.7492		23513.1		299		84		0
2480.6		36802		16273		30.7586		23501.8		286		84		0
2480.8		36780		16003		30.8781		23151.9		276		85		0
2481		36805		15859		30.7884		22913.8		282		87		0
2481.2		36798		15731		30.8078		22735.2		290		87		0
2481.4		36823		15702		30.8475		22706.3		282		86		0
2481.6		36817		15634		30.8305		22602.5		281		83		0
2481.8		36822		15783		30.8235		22815.5		287		83		0
2482		36842		15578		30.7227		22486.4		281		84		0
2482.2		36852		15033		30.5713		21652.4		282		84		0
2482.4		36843		15072		30.6761		21741.4		273		86		0
2482.6		36844		14696		30.4727		21137		279		87		0
2482.8		36865		14512		30.5956		20909.3		276		85		0
2483		36864		14063		30.5704		20255		290		84		0
2483.2		36875		14097		30.5869		20308.9		284		85		0
2483.4		36884		13989		30.5395		20139.5		279		84		0
2483.6		36931		13716		30.4477		19720.4		305		86		0
2483.8		36913		13796		30.6924		19905.5		278		86		0
2484		36931		13850		30.3668		19889.9		286		84		0
2484.2		36909		13774		30.317		19766.6		276		84		0
2484.4		36937		13565		30.3772		19483.5		289		84		0
2484.6		36946		13687		30.4342		19674.9		274		84		0
2484.8		36911		13702		30.2281		19638.3		280		87		0
2485		36926		13673		30.392		19642.8		283		86		0
2485.2		36915		13680		30.3892		19652.1		281		85		0
2485.4		36920		13825		30.5143		19896.2		271		84		0
2485.6		36914		13742		30.332		19725		286		83		0
2485.8		36904		13604		30.3585		19534.3		294		84		0
2486		36901		13844		30.3649		19880.8		279		86		0
2486.2		36907		13949		30.3939		20039.9		273		87		0
2486.4		36923		13891		30.5489		20001.1		281		86		0
2486.6		36884		13891		30.4284		19966.5		282		87		0
2486.8		36908		13899		30.5384		20009.6		280		88		0
2487		36914		14001		30.58		20168.5		283		85		0
2487.2		36916		13994		30.8362		20233.1		289		85		0
2487.4		36905		13936		30.5894		20077.6		253		83		0
2487.6		36900		13726		30.4523		19736.1		276		83		0
2487.8		36919		13946		30.6807		20118.5		287		83		0
2488		36908		14147		30.4288		20334.6		280		85		0
2489		36984		14209		30.381		20409.7		272		86		0
2490		37040		14104		30.5883		20319.3		275		84		0
2491		37184		13608		30.5057		19581.5		283		83		0
2492		37177		13661		30.426		19635.2		277		85		0
2493		37161		13423		30.5003		19313.7		288		86		0
2494		37172		13420		30.2209		19232.1		273		85		0
2495		37156		13474		30.4117		19362.5		274		84		0
2496		37162		13785		30.514		19838.5		279		85		0
2497		37151		13780		30.2479		19755.7		278		84		0
2498		37193		13819		30.5913		19909.6		290		84		0
2499		37216		14008		30.5768		20177.7		270		86		0
2500		37248		14180		30.4632		20392.1		285		87		0
2501		37278		14139		30.6708		20394		281		83		0
2502		37260		14265		30.5941		20553		276		84		0
2503		37243		14555		30.5925		20970.4		283		84		0
2504		37250		14833		30.6528		21389.5		279		86		0
2505		37261		14931		30.6829		21540.2		278		85		0
2506		37265		15014		30.5683		21624.1		274		85		0
2507		37287		15037		30.8185		21735.6		278		83		0
2508		37296		15269		30.636		22012.9		274		84		0
2509		37370		15171		30.7243		21899.4		275		86		0
2510		37400		14699		30.6196		21186.1		280		86		0
2511		37389		14480		30.6211		20870.9		283		86		0
2512		37357		14423		30.5695		20773.3		283		85		0
2513		37358		14063		30.3643		20195.1		279		83		0
2514		37333		13981		30.3319		20068		274		84		0
2515		37355		13728		30.4946		19751		274		84		0
2516		37369		13852		30.4361		19912.6		271		85		0
2517		37369		13440		30.285		19278.5		287		87		0
2518		37368		13331		30.3595		19142.6		280		85		0
2519		37395		13214		30.3018		18958.9		273		87		0
2520		37408		13061		30.4949		18791.4		265		83		0
2521		37388		13112		30.3408		18823.1		275		86		0
2522		37389		13174		30.3765		18921.8		273		86		0
2523		37344		12912		30.2502		18511.9		260		88		0
2524		37393		13262		30.2276		19007.5		275		85		0
