# XAS / LUCIA / SOLEIL : 
# Date : dim. 30 mai 2021
#
# TARGET : DR03-02_Femaptest_POI3
# Total number of scan(s) : 1
# Scan N° : 1
# Coordinates : 
#               Horizontal : 55.024
#               Vertical : 116.406
#               Depth : 10230.3
#               Rotation : -0.003
# ROI window : 
#               ROI_inf : 1290
#               ROI_sup : 1365
#
# Start of this scan : 16:10:48
# End of this scan : 16:28:22
#
# I0 current at start (µA) : 5.924e-12
# USER COMMENTS : 
# 
# EXPERIMENTAL CONFIGURATION : 
# Undulator Harmonic : 21       Offset : nan
# Undulator Polarization : 0
# Low pass filter angle (°) : 0.319447         translation (µm) : -165.5
# Monochromator Crystal : 3: Si311
#
# SCAN : 
# Range		From(eV)	To(eV)		Step(eV)	Time(sec)
## 1		7070		7105		2		1
## 2		7105.1		7121		0.1		1
## 3		7121.5		7160		0.5		1
## 4		7161		7250		1		1
#
# Energy	Io		FY		DeadTime		FY_c		TEY		It		Ctr4
7069.99		13442		1386		5.09949		1460.48		0		98		0
7071.99		13375		1431		5.02358		1506.69		29		96		0
7073.99		13336		1441		5.16227		1519.44		0		95		0
7075.99		13291		1548		5.05574		1630.43		0		97		0
7078		13258		1546		5.28314		1632.23		0		95		0
7080		13243		1603		5.31328		1692.95		0		95		0
7082		13227		1672		5.24518		1764.55		0		95		0
7084		13206		1782		5.25334		1880.81		39		95		0
7086		13172		1851		5.31248		1954.85		0		94		0
7088		13140		1988		5.2144		2097.37		9		97		0
7090.01		13113		2129		5.29107		2247.94		0		98		0
7092		13089		2211		5.2577		2333.7		0		96		0
7094		13091		2417		5.48246		2557.2		0		98		0
7096		13062		2496		5.4343		2639.43		0		96		0
7098		13051		2715		5.33994		2868.16		0		96		0
7100		13021		2999		5.24368		3164.96		0		97		0
7102		12998		3308		5.50381		3500.67		19		95		0
7104		12966		3810		5.42026		4028.35		6		97		0
7105.12		12958		3982		5.84851		4229.35		0		97		0
7105.21		12956		4051		5.57062		4289.98		0		97		0
7105.31		12939		4171		5.54061		4415.65		0		96		0
7105.4		12942		4096		5.60646		4339.28		3		95		0
7105.5		12935		4179		5.73347		4433.17		0		95		0
7105.59		12931		4160		5.71126		4411.98		0		97		0
7105.69		12924		4214		5.71462		4469.41		0		96		0
7105.79		12913		4309		5.66877		4567.95		0		95		0
7105.9		12936		4158		5.65702		4407.32		0		98		0
7106		12925		4303		5.54733		4555.72		0		97		0
7106.1		12921		4328		5.61552		4585.5		0		96		0
7106.2		12902		4224		5.58733		4473.98		0		95		0
7106.3		12908		4269		5.49574		4517.26		0		96		0
7106.4		12904		4401		5.58374		4661.27		0		98		0
7106.5		12905		4510		5.78496		4786.92		0		96		0
7106.6		12897		4493		5.83946		4771.64		0		96		0
7106.7		12886		4552		5.6		4822.03		0		96		0
7106.8		12887		4669		5.78714		4955.8		0		98		0
7106.91		12881		4561		5.63293		4833.25		34		96		0
7107.01		12877		4639		5.58554		4913.44		0		96		0
7107.11		12891		4737		5.78662		5027.95		0		97		0
7107.21		12886		4824		5.88173		5125.47		53		97		0
7107.3		12886		4728		5.82186		5020.27		31		98		0
7107.4		12883		4781		5.70934		5070.49		7		96		0
7107.5		12882		4836		5.72301		5129.57		0		96		0
7107.59		12880		4928		5.86394		5234.98		0		96		0
7107.69		12902		4976		5.91194		5288.66		0		99		0
7107.79		12889		5031		5.89923		5346.4		0		97		0
7107.9		12882		5022		5.7705		5329.54		0		96		0
7108		12887		5187		5.92883		5513.91		0		96		0
7108.1		12887		5313		5.90378		5646.35		0		99		0
7108.2		12888		5276		5.87267		5605.17		0		96		0
7108.3		12883		5283		5.8296		5610.04		0		96		0
7108.4		12884		5466		6.00656		5815.3		0		96		0
7108.5		12886		5368		5.85014		5701.55		0		98		0
7108.6		12881		5532		5.90102		5878.92		0		99		0
7108.7		12873		5569		5.91613		5919.19		34		96		0
7108.8		12852		5588		5.89702		5938.18		0		95		0
7108.91		12861		5706		5.94512		6066.67		0		96		0
7109.01		12868		5702		5.94848		6062.63		69		98		0
7109.11		12872		5897		5.85322		6263.62		0		97		0
7109.21		12863		5896		6.07837		6277.57		72		96		0
7109.3		12863		5963		6.01162		6344.4		0		96		0
7109.4		12860		6116		6.05747		6510.36		0		97		0
7109.49		12856		6119		5.93238		6504.9		1		97		0
7109.59		12853		6260		6.28368		6679.73		0		96		0
7109.69		12853		6447		6.11699		6867.06		0		96		0
7109.8		12851		6450		6.10429		6869.32		0		96		0
7109.9		12844		6637		5.98957		7059.85		0		96		0
7110		12845		6568		6.06374		6991.98		0		95		0
7110.1		12847		6954		6.40237		7429.68		0		98		0
7110.2		12852		7028		6.1296		7486.92		0		98		0
7110.3		12851		7075		6.08109		7533.09		0		98		0
7110.4		12841		7268		6.28205		7755.18		0		97		0
7110.5		12845		7591		6.31869		8103		0		96		0
7110.6		12836		7747		6.35677		8272.89		4		96		0
7110.7		12834		8051		6.5759		8617.69		0		95		0
7110.8		12832		8278		6.59606		8862.58		0		96		0
7110.91		12837		8580		6.65952		9192.15		0		96		0
7111.01		12828		8687		6.51277		9292.18		0		96		0
7111.11		12825		9181		6.86877		9858.13		0		98		0
7111.21		12832		9509		6.70371		10192.3		0		96		0
7111.3		12830		10228		6.8697		10982.5		0		95		0
7111.4		12829		10809		6.94224		11615.4		0		96		0
7111.49		12818		11331		7.23856		12215.2		0		96		0
7111.59		12819		12245		7.3129		13211.1		5		96		0
7111.7		12819		13179		7.5479		14254.9		0		98		0
7111.8		12814		14335		7.78038		15544.4		0		96		0
7111.9		12811		15278		7.96794		16600.7		0		95		0
7112		12815		16418		8.03226		17851.9		42		96		0
7112.1		12824		17136		8.5047		18728.8		0		98		0
7112.2		12813		18052		8.7664		19786.6		0		96		0
7112.3		12811		18640		8.76416		20430.6		52		95		0
7112.4		12807		18959		8.67338		20759.6		0		98		0
7112.5		12797		19365		8.99562		21279.2		3		97		0
7112.6		12797		19148		8.83674		21004.1		20		98		0
7112.7		12803		18976		8.71683		20788.1		49		96		0
7112.81		12796		19010		8.76173		20835.6		0		95		0
7112.91		12795		18980		8.58118		20761.6		0		95		0
7113.01		12805		18318		8.62794		20047.7		48		96		0
7113.11		12797		18431		8.46442		20135.3		0		98		0
7113.21		12781		17853		8.55254		19522.7		0		98		0
7113.3		12776		17384		8.47302		18993.3		0		96		0
7113.4		12798		17750		8.49818		19398.5		0		96		0
7113.49		12797		17664		8.46528		19297.6		0		96		0
7113.59		12793		18024		8.62698		19725.7		0		96		0
7113.69		12799		18257		8.5577		19965.6		0		95		0
7113.8		12797		18453		8.7465		20221.7		0		98		0
7113.9		12789		18513		8.7913		20297.4		0		98		0
7114		12767		18854		8.67517		20645		0		96		0
7114.1		12755		18513		8.81894		20303.6		0		96		0
7114.2		12767		18623		8.88586		20439.2		0		96		0
7114.3		12756		18281		8.72304		20028.1		0		96		0
7114.4		12749		18213		8.63558		19934.5		0		96		0
7114.5		12761		17901		8.4975		19563.4		0		97		0
7114.6		12753		17806		8.372		19432.9		0		97		0
7114.7		12755		17536		8.47728		19160.3		34		97		0
7114.81		12749		17359		8.38662		18948.1		2		97		0
7114.91		12747		17385		8.21539		18941.1		3		96		0
7115.01		12743		17054		8.63638		18666.1		11		95		0
7115.11		12733		16778		8.31731		18300.1		0		97		0
7115.21		12765		16952		8.32576		18491.6		0		97		0
7115.3		12772		16843		8.6488		18437.6		0		96		0
7115.4		12786		16986		8.34214		18532		0		96		0
7115.49		12773		17050		8.43885		18621.4		0		94		0
7115.59		12775		17373		8.41286		18968.8		0		95		0
7115.69		12779		17873		8.4695		19526.8		0		98		0
7115.8		12768		17983		8.41459		19635.2		0		96		0
7115.9		12773		18478		8.74506		20248.8		0		96		0
7116		12773		18817		8.55242		20576.8		0		96		0
7116.1		12773		19422		9.05094		21354.8		0		97		0
7116.2		12769		20103		8.98643		22087.9		0		96		0
7116.3		12774		20746		9.35459		22887		0		95		0
7116.4		12764		21510		9.424		23748		10		95		0
7116.5		12754		22481		9.7161		24900.3		73		97		0
7116.6		12755		23660		9.78355		26225.8		0		97		0
7116.7		12758		24238		10.1453		26974.7		42		95		0
7116.81		12759		25598		10.4311		28579.1		0		96		0
7116.91		12749		26327		10.5597		29435.3		0		96		0
7117.01		12758		27643		10.7762		30981.6		33		98		0
7117.11		12751		28940		11.2052		32592		0		98		0
7117.2		12748		30363		11.4713		34297.4		0		98		0
7117.3		12751		31603		11.7011		35790.9		0		96		0
7117.4		12749		33413		12.0095		37973.4		0		96		0
7117.49		12743		35287		12.4451		40302.7		0		96		0
7117.59		12747		37432		12.7611		42907.4		0		95		0
7117.69		12735		39342		13.6954		45585.1		0		98		0
7117.8		12747		41285		14.0289		48022		0		98		0
7117.9		12737		43278		14.3378		50521.7		0		96		0
7118		12743		45398		14.9808		53397.4		0		96		0
7118.1		12736		47675		15.6757		56537.7		0		95		0
7118.2		12741		49958		16.118		59557.4		0		98		0
7118.3		12738		52180		16.6653		62615		0		98		0
7118.4		12733		55181		17.2939		66719.4		6		98		0
7118.5		12729		57898		17.909		70529.1		0		96		0
7118.6		12733		60753		18.8029		74821.6		0		96		0
7118.71		12733		63287		19.4403		78559.1		0		97		0
7118.81		12725		65688		20.2938		82412.7		46		96		0
7118.91		12730		68717		20.8744		86845.5		31		98		0
7119		12721		71080		21.5692		90627.7		4		96		0
7119.11		12723		73715		22.2892		94858.1		59		95		0
7119.2		12750		76088		23.0372		98863.3		18		96		0
7119.3		12750		78814		23.7254		103329		0		97		0
7119.39		12742		82025		24.5009		108644		0		98		0
7119.49		12750		84795		25.4042		113673		9		97		0
7119.59		12738		87392		26.1629		118358		0		99		0
7119.69		12738		89722		26.9345		122797		0		97		0
7119.8		12729		92093		27.664		127313		0		96		0
7119.9		12730		94607		28.5049		132327		0		96		0
7120		12728		96852		28.9975		136407		0		96		0
7120.1		12742		98626		29.5351		139965		0		98		0
7120.2		12737		100116		30.2253		143485		0		98		0
7120.3		12726		102007		30.8649		147547		0		96		0
7120.4		12729		103845		31.4665		151524		0		96		0
7120.5		12733		105382		32.2127		155460		0		99		0
7120.6		12723		106455		32.5606		157853		0		97		0
7120.7		12720		108250		32.9433		161430		0		97		0
7120.81		12719		109374		33.4847		164434		19		96		0
7120.91		12710		110329		33.9806		167116		0		98		0
7121.5		12706		117027		36.2481		183566		0		98		0
7122		12698		121685		38.0938		196563		0		97		0
7122.5		12685		125539		39.7844		208483		73		97		0
7123		12680		129656		41.5849		221956		0		97		0
7123.49		12664		133208		43.8707		237324		3		97		0
7124		12657		137962		46.0377		255664		0		97		0
7124.5		12647		140984		47.9245		270730		36		97		0
7125		12671		143087		49.6189		284009		11		97		0
7125.49		12200		144347		49.5438		286084		0		96		0
7126		12551		146356		51.9774		304765		0		97		0
7126.49		12560		147155		52.6857		311016		0		98		0
7127.01		12548		148076		52.6475		312710		0		97		0
7127.5		12531		147239		52.8533		312300		3		95		0
7128		12506		147192		52.8308		312051		9		96		0
7128.5		12495		147250		52.8329		312188		0		96		0
7129		12480		148126		52.4836		311737		12		96		0
7129.49		12473		146018		52.5324		307616		0		98		0
7129.99		12464		146385		52.225		306405		0		98		0
7130.5		12459		146464		52.097		305751		0		98		0
7131		12459		146197		51.8298		303501		0		99		0
7131.49		12453		145728		51.6122		301167		0		98		0
7131.99		12435		145481		50.9134		296376		20		98		0
7132.49		12437		144665		50.6107		292908		0		97		0
7133.01		12431		144347		50.0778		289144		0		96		0
7133.49		12430		143502		49.715		285377		41		95		0
7133.99		12418		143134		49.5229		283562		0		96		0
7134.49		12425		142988		48.9886		280306		0		95		0
7135		12415		142324		48.7911		277928		0		97		0
7135.49		12417		142218		48.5342		276335		0		98		0
7135.99		12413		141196		48.2395		272787		0		98		0
7136.49		12410		140896		48.0665		271301		0		97		0
7137		12391		140883		47.8876		270345		0		98		0
7137.49		12180		139674		47.2053		264561		0		98		0
7137.99		12369		140562		47.4782		267626		0		97		0
7138.5		12395		140849		47.2726		267127		0		96		0
7139.01		12390		139910		47.0048		264005		0		96		0
7139.5		12403		139531		46.9331		262934		0		96		0
7140		12389		139591		46.6948		261871		0		97		0
7140.49		12390		138900		46.456		259413		0		97		0
7141		12425		138391		46.4403		258386		0		96		0
7141.5		12421		138361		46.2536		257433		1		98		0
7141.99		12413		137812		46.0357		255376		36		98		0
7142.5		12421		138237		45.7246		254695		0		96		0
7143		12403		137905		45.5757		253389		0		95		0
7143.5		12391		136248		45.3685		249394		0		96		0
7143.99		12194		135731		44.4676		244417		0		96		0
7144.49		12373		136133		44.7902		246574		0		96		0
7145.01		12386		135800		44.4688		244547		0		97		0
7145.5		12383		135433		44.2756		243041		0		99		0
7146		12388		134221		44.0066		239709		0		98		0
7146.49		12374		134524		43.4819		238019		0		97		0
7147		12369		133926		43.5461		237231		0		97		0
7147.5		12375		132890		43.2563		234193		29		96		0
7147.99		12361		132257		43.0484		232227		0		95		0
7148.5		12350		132507		42.666		231114		0		95		0
7149		12353		132305		42.5316		230222		0		95		0
7149.49		12355		130567		42.3864		226625		0		98		0
7149.99		12345		130452		42.1659		225562		97		98		0
7150.5		12341		130796		41.9889		225467		45		96		0
7151		12337		130291		41.8054		223889		0		97		0
7151.49		12326		130204		41.6357		223088		46		96		0
7152		12322		129584		41.523		221598		0		97		0
7152.49		12325		129400		41.497		221185		14		97		0
7153		12314		129650		41.4692		221507		0		96		0
7153.49		12302		128855		41.4266		219989		1		95		0
7154		12300		129423		41.3662		220731		0		95		0
7154.5		12299		129104		41.3246		220031		0		95		0
7155.01		12293		129764		41.2304		220801		0		96		0
7155.5		12278		129593		41.0997		220021		0		97		0
7156		12283		129624		41.3717		221095		0		99		0
7156.49		12279		129193		41.1901		219679		2		97		0
7157		12285		129511		41.3812		220937		0		98		0
7157.5		12292		129847		41.5112		222003		0		97		0
7157.99		11929		128893		40.4695		216516		0		96		0
7158.49		12224		129659		41.6228		222105		0		97		0
7159		12235		130276		41.474		222595		29		97		0
7159.49		12241		130195		41.6992		223316		0		98		0
7159.99		12235		129534		41.76		222414		0		98		0
7161		12225		130241		41.7227		223485		0		99		0
7162		12226		131113		42.1485		226637		0		98		0
7163		12221		131640		42.1322		227484		0		97		0
7164		12192		131061		42.378		227450		0		97		0
7165		12189		131600		42.8051		230090		0		97		0
7166		12179		132361		42.8022		231409		38		96		0
7167		12155		132977		42.9719		233178		0		96		0
7168		12159		132897		43.0874		233511		0		98		0
7169		12140		133799		43.3204		236062		0		95		0
7170		12128		133436		43.4461		235945		0		96		0
7171		12126		134394		43.6794		238623		18		96		0
7172		12111		134175		43.8838		239102		0		97		0
7173		12098		135471		44.2087		242817		0		96		0
7174		12095		135363		44.0783		242058		0		95		0
7175		12087		135248		44.3407		242993		0		95		0
7176		12089		135336		44.4408		243589		0		95		0
7177		12094		136159		44.3243		244557		0		97		0
7178		12084		136011		44.5844		245438		0		98		0
7179		12089		135296		44.6362		244376		14		96		0
7180		12082		135125		44.5017		243476		3		98		0
7181		12072		136010		44.486		245001		0		97		0
7182		12062		136067		44.5979		245599		13		95		0
7183		12074		135442		44.7056		244947		0		96		0
7184		12055		136440		44.5194		245924		0		98		0
7185		12035		136546		44.357		245397		0		99		0
7186		12015		135299		44.5005		243784		9		96		0
7187.01		11999		135913		44.41		244492		0		95		0
7188		11999		134938		44.4649		242978		0		96		0
7189.01		11987		135414		44.2776		243015		0		96		0
7190		11981		135605		44.2757		243350		0		97		0
7191.02		11966		135361		44.218		242661		0		99		0
7192		11949		135979		44.0537		243053		0		96		0
7193.01		11940		135149		44.0113		241386		0		97		0
7194		11929		134766		44.013		240709		0		97		0
7195.01		11920		134295		43.9067		239413		88		94		0
7196		11920		134991		43.5169		238993		0		97		0
7197.01		11905		134217		43.7856		238759		0		97		0
7198		11899		134032		43.5577		237467		30		97		0
7199		11895		134309		43.5412		237889		0		97		0
7200		11879		133115		43.4855		235541		16		95		0
7201		11866		133531		43.1893		235046		0		95		0
7202		11852		132935		42.9864		233164		0		97		0
7203		11831		133516		42.9693		234113		0		96		0
7204		11831		132392		42.9464		232049		16		96		0
7204.99		11807		132925		42.903		232806		0		97		0
7206.01		11797		132600		42.9815		232556		0		95		0
7207		11782		132428		42.7461		231300		0		95		0
7208		11774		132582		42.5219		230665		0		98		0
7209		11768		132651		42.4128		230348		0		97		0
7210		11771		131914		42.6674		230086		0		95		0
7211		11766		132030		42.5016		229624		0		96		0
7212.01		11752		132831		42.2876		230160		0		96		0
7213		11746		131887		42.4445		229148		0		98		0
7214.01		11735		132028		42.2169		228489		0		97		0
7215		11732		132552		42.1705		229212		18		97		0
7216.01		11720		132166		42.0695		228146		0		97		0
7217		11709		131719		42.2443		228062		0		96		0
7218.01		11692		131961		41.9677		227392		0		96		0
7219		11702		131533		41.9647		226643		5		94		0
7220.01		11691		131706		42.0761		227378		18		95		0
7221		11677		131492		42.079		227020		54		97		0
7222		11674		130865		42.1652		226274		0		96		0
7223		11672		132288		41.8208		227380		87		95		0
7224		11653		130959		42.0164		225855		0		96		0
7225		11644		131585		41.9015		226486		64		95		0
7226		11639		131124		42.0796		226387		0		98		0
7227		11635		131824		41.9441		227064		0		98		0
7228		11641		131414		42.1438		227139		27		97		0
7229		11630		131072		41.7405		224980		26		95		0
7230		11630		131576		41.9805		226779		0		97		0
7231		11629		129999		41.942		223912		0		95		0
7232		11614		131102		42.0109		226080		18		95		0
7233		11622		130963		41.8539		225231		19		96		0
7234.01		11612		131512		41.8772		226266		0		95		0
7235		11608		131488		41.967		226575		8		96		0
7236		11585		131318		41.7359		225384		0		97		0
7237		11576		131259		41.7876		225483		2		96		0
7238		11572		131050		41.6664		224656		0		97		0
7239		11549		131353		41.6725		225199		0		95		0
7240.01		11532		131381		41.5708		224855		0		95		0
7241		11520		131683		41.6226		225572		0		94		0
7242		11537		131243		41.8072		225531		6		97		0
7242.99		11524		130995		41.7694		224959		44		96		0
7244		11519		130721		41.8231		224696		123		96		0
7245.01		11507		131310		41.7164		225295		0		96		0
7246.01		11503		131121		41.7849		225235		19		96		0
7247.01		11485		131571		41.6197		225369		25		96		0
7248		11481		131257		41.8437		225697		0		97		0
7249		11471		131229		41.6952		225074		32		97		0
