# XAS / LUCIA / SOLEIL : 
# Date : dim. 30 mai 2021
#
# TARGET : DR05-04_Femaptest_POI1
# Total number of scan(s) : 1
# Scan N° : 1
# Coordinates : 
#               Horizontal : 454.9
#               Vertical : 212.131
#               Depth : 10230.5
#               Rotation : -0.003
# ROI window : 
#               ROI_inf : 1290
#               ROI_sup : 1365
#
# Start of this scan : 16:43:24
# End of this scan : 17:00:39
#
# I0 current at start (µA) : 5.95e-12
# USER COMMENTS : 
# 
# EXPERIMENTAL CONFIGURATION : 
# Undulator Harmonic : 21       Offset : nan
# Undulator Polarization : 0
# Low pass filter angle (°) : 0.319447         translation (µm) : -165.5
# Monochromator Crystal : 3: Si311
#
# SCAN : 
# Range		From(eV)	To(eV)		Step(eV)	Time(sec)
## 1		7070		7105		2		1
## 2		7105.1		7121		0.1		1
## 3		7121.5		7160		0.5		1
## 4		7161		7250		1		1
#
# Energy	Io		FY		DeadTime		FY_c		TEY		It		Ctr4
7070		13084		1159		6.2889		1236.78		0		99		0
7072		13410		1192		6.12109		1269.72		0		96		0
7073.99		13380		1253		6.22755		1336.21		13		99		0
7076		13330		1308		6.31155		1396.12		0		99		0
7078		13305		1351		6.0425		1437.88		11		98		0
7079.99		13277		1472		6.21018		1569.47		0		99		0
7081.99		13268		1460		6.11866		1555.15		0		98		0
7084		13243		1560		6.22662		1663.59		0		98		0
7086		13212		1630		6.17242		1737.23		0		97		0
7088		13173		1616		6.12598		1721.46		0		97		0
7090		13152		1766		6.21149		1882.96		83		97		0
7092		13138		1979		6.19296		2109.65		0		96		0
7094		13133		2048		5.97427		2178.13		1		97		0
7096		13116		2159		6.45411		2307.96		0		97		0
7098		13082		2469		6.16365		2631.18		59		97		0
7100		13063		2599		6.35584		2775.4		0		99		0
7102		13041		2872		6.43635		3069.57		14		99		0
7104		13010		3284		6.50765		3512.59		0		97		0
7105.11		12992		3542		6.49008		3787.83		0		98		0
7105.21		12980		3557		6.59341		3808.08		0		95		0
7105.31		12993		3572		6.4808		3819.54		0		97		0
7105.4		12990		3653		6.66106		3913.69		0		99		0
7105.5		12979		3511		6.46576		3753.71		16		98		0
7105.59		12977		3657		6.53066		3912.51		0		96		0
7105.69		12974		3715		6.51645		3973.96		0		95		0
7105.8		12971		3734		6.38253		3988.57		0		97		0
7105.9		12961		3776		6.38838		4033.69		0		96		0
7106		12964		3788		6.63107		4057.02		0		98		0
7106.1		12959		3868		6.32406		4129.13		19		99		0
7106.2		12955		3850		6.53965		4119.39		24		99		0
7106.3		12953		3964		6.52234		4240.59		0		99		0
7106.4		12951		3914		6.61226		4191.13		0		98		0
7106.5		12949		4028		6.58218		4311.81		0		97		0
7106.6		12936		3951		6.44877		4223.35		0		97		0
7106.7		12938		4080		6.55971		4366.42		0		98		0
7106.8		12929		4090		6.72122		4384.71		12		98		0
7106.9		12925		4114		6.55162		4402.43		0		97		0
7107.01		12930		4070		6.49622		4352.77		2		97		0
7107.11		12937		4252		6.42912		4544.15		0		97		0
7107.21		12943		4084		6.43229		4364.75		0		96		0
7107.3		12948		4224		6.62851		4523.86		0		96		0
7107.4		12953		4285		6.76147		4595.74		0		99		0
7107.5		12946		4220		6.63491		4519.89		0		99		0
7107.59		12938		4376		6.55478		4682.96		5		96		0
7107.69		12938		4490		6.67101		4810.94		0		97		0
7107.79		12937		4418		6.57459		4728.91		0		99		0
7107.9		12933		4517		6.51603		4831.84		3		99		0
7108		12916		4541		6.69296		4866.73		0		97		0
7108.1		12918		4603		6.62099		4929.37		0		100		0
7108.2		12923		4622		6.78531		4958.45		0		97		0
7108.3		12916		4622		6.68717		4953.23		0		97		0
7108.4		12897		4707		6.77341		5048.99		0		97		0
7108.5		12893		4779		6.72144		5123.36		4		97		0
7108.6		12902		4856		6.66		5202.49		6		98		0
7108.7		12901		4893		6.77114		5248.37		30		98		0
7108.8		12898		4935		6.79366		5294.7		0		96		0
7108.91		12899		4894		6.63616		5241.86		0		97		0
7109.01		12895		5132		6.82387		5507.85		0		98		0
7109.11		12899		5118		6.74262		5488.04		0		100		0
7109.2		12883		5099		6.7433		5467.7		0		97		0
7109.3		12886		5269		6.76115		5651.08		0		97		0
7109.4		12888		5416		6.8176		5812.26		0		99		0
7109.49		12882		5435		6.80189		5831.66		72		98		0
7109.59		12880		5607		6.85878		6019.89		0		97		0
7109.69		12875		5638		6.7009		6042.93		11		95		0
7109.8		12882		5739		6.79059		6157.1		0		96		0
7109.9		12877		5799		6.71149		6216.2		0		96		0
7110		12872		6034		7.09331		6494.69		34		98		0
7110.1		12874		6024		6.99802		6477.28		0		97		0
7110.2		12874		6236		6.94582		6701.47		0		97		0
7110.3		12869		6529		6.83558		7008.04		0		96		0
7110.4		12875		6511		6.97158		6998.94		44		98		0
7110.5		12865		6599		7.01293		7096.69		0		97		0
7110.6		12863		6872		7.10237		7397.39		0		96		0
7110.7		12862		7069		7.05949		7605.94		0		96		0
7110.8		12858		7223		7.34467		7795.56		102		95		0
7110.91		12864		7550		7.3592		8149.76		41		97		0
7111.01		12861		7794		7.31821		8409.42		60		98		0
7111.1		12856		8163		7.30614		8806.41		0		97		0
7111.2		12847		8504		7.49757		9193.27		0		98		0
7111.3		12846		8929		7.45926		9648.72		51		95		0
7111.4		12837		9393		7.80019		10187.7		0		97		0
7111.5		12835		10082		7.54678		10905		0		98		0
7111.59		12833		10895		7.93776		11834.4		0		98		0
7111.69		12828		11534		8.12419		12553.9		0		96		0
7111.79		12834		12538		8.0959		13642.5		0		95		0
7111.9		12830		13334		8.35754		14550		47		97		0
7112		12819		14383		8.60032		15736.4		38		96		0
7112.1		12819		15013		8.84003		16468.9		7		95		0
7112.2		12818		15819		9.01325		17386		54		98		0
7112.3		12812		16002		8.9647		17577.8		0		99		0
7112.4		12818		16752		9.00026		18408.8		0		97		0
7112.5		12816		16701		9.29699		18412.8		0		98		0
7112.6		12809		16872		9.02832		18546.4		106		96		0
7112.7		12808		16885		9.24022		18604.1		0		99		0
7112.81		12801		16587		9.21002		18269.6		0		99		0
7112.91		12797		16531		9.00842		18167.6		54		99		0
7113.01		12783		16149		9.12237		17770		0		96		0
7113.1		12781		16087		9.08352		17694.3		9		97		0
7113.21		12787		15735		8.86534		17265.7		11		98		0
7113.3		12781		15890		9.0015		17461.8		0		96		0
7113.4		12781		15868		8.78358		17396		0		99		0
7113.49		12803		15987		9.15837		17598.8		60		96		0
7113.59		12797		16126		9.03011		17726.7		0		96		0
7113.69		12798		16502		9.16141		18166.3		0		98		0
7113.8		12789		16583		9.10576		18244.3		0		96		0
7113.9		12792		16954		9.19811		18671.4		37		96		0
7114		12791		16802		9.21213		18506.9		5		97		0
7114.1		12786		16783		9.15587		18474.5		0		97		0
7114.2		12797		16914		9.15565		18618.7		0		99		0
7114.3		12798		16728		9.24576		18432.2		5		97		0
7114.4		12793		16708		9.0721		18375		1		99		0
7114.5		12794		16330		9.15603		17975.9		0		100		0
7114.6		12785		16002		8.9087		17567		0		99		0
7114.7		12784		16012		8.91056		17578.3		0		97		0
7114.81		12788		15655		9.05251		17213.2		0		98		0
7114.91		12789		15759		8.77021		17274		0		98		0
7115.01		12792		15555		9.09811		17111.9		25		98		0
7115.11		12788		15519		8.71402		17000.4		16		97		0
7115.21		12782		15431		9.02854		16962.5		0		96		0
7115.3		12781		15506		8.91536		17023.7		43		96		0
7115.4		12780		15701		9.04406		17262.2		0		96		0
7115.49		12775		15767		8.92797		17312.7		0		96		0
7115.59		12782		16082		9.1207		17696		0		98		0
7115.69		12779		16503		9.22154		18179.4		0		99		0
7115.8		12769		16768		9.27136		18481.5		0		98		0
7115.9		12770		16902		9.32765		18640.7		0		95		0
7116		12773		17263		9.26208		19025.1		0		96		0
7116.1		12780		18045		9.45296		19928.9		0		96		0
7116.2		12783		18603		9.49341		20554.3		0		97		0
7116.3		12778		19309		9.70099		21383.4		0		97		0
7116.4		12760		19595		9.68838		21697.1		16		95		0
7116.5		12761		20690		10.1709		23032.6		0		95		0
7116.6		12759		21371		10.2219		23804.2		0		98		0
7116.7		12761		22179		10.2526		24712.7		0		97		0
7116.81		12771		22997		10.4329		25675.7		0		96		0
7116.91		12766		23928		10.7178		26800.4		0		96		0
7117.01		12759		24872		10.9959		27944.8		0		94		0
7117.11		12756		26069		11.4504		29440		118		96		0
7117.2		12762		27194		11.7347		30809.4		6		97		0
7117.3		12771		28759		11.9878		32676.2		1		99		0
7117.4		12758		30038		12.3777		34281.2		0		98		0
7117.49		12748		31433		12.6044		35966.4		1		96		0
7117.59		12756		33641		12.7084		38538.7		0		96		0
7117.69		12762		35264		13.3991		40720.1		0		98		0
7117.8		12758		37171		13.9322		43188		0		96		0
7117.9		12753		39002		14.4641		45597.2		0		96		0
7118		12749		41196		14.6664		48276.4		47		97		0
7118.1		12745		42773		15.2681		50480.4		0		98		0
7118.2		12740		44979		15.6375		53316.3		10		98		0
7118.3		12744		47485		16.2124		56673.1		0		97		0
7118.4		12740		49317		16.935		59371.6		6		98		0
7118.5		12743		52129		17.3755		63091.5		58		99		0
7118.6		12735		54339		18.2371		66459.2		0		98		0
7118.71		12734		57147		18.7252		70313.3		0		98		0
7118.81		12732		59646		19.1334		73758.5		0		96		0
7118.91		12731		62028		19.9225		77460		0		97		0
7119.01		12735		64381		20.665		81150.8		0		98		0
7119.11		12731		66675		21.3656		84791.1		0		98		0
7119.2		12722		68994		21.8315		88263.1		12		99		0
7119.3		12725		71779		22.479		92593		0		96		0
7119.39		12726		74677		23.3433		97417.4		22		97		0
7119.49		12741		76938		23.9917		101223		0		100		0
7119.59		12741		79168		24.7891		105261		16		99		0
7119.69		12736		81324		25.5936		109297		0		100		0
7119.8		12739		83720		26.3467		113668		0		97		0
7119.9		12738		85730		26.9593		117373		0		96		0
7120		12734		88703		27.3783		122144		0		97		0
7120.1		12725		90248		28.0759		125477		8		98		0
7120.2		12727		91536		28.4487		127931		3		100		0
7120.3		12734		93958		29.2379		132780		1		100		0
7120.4		12720		95148		29.6973		135341		15		99		0
7120.5		12725		96941		30.1586		138802		0		100		0
7120.6		12711		99072		30.7983		143164		34		97		0
7120.7		12709		100302		30.8468		145043		0		97		0
7120.81		12721		101295		31.7016		148312		0		100		0
7120.91		12709		102799		31.8556		150855		19		97		0
7121.5		12695		109057		34.14		165589		0		99		0
7122		12683		114122		35.8343		177855		0		97		0
7122.5		12673		118854		37.7763		191011		54		96		0
7123		12658		122467		39.847		203592		28		96		0
7123.49		12645		127346		41.8549		219014		0		96		0
7124		12643		131766		43.9199		234960		12		98		0
7124.5		12627		135371		45.7023		249313		0		97		0
7125		12637		138568		47.7112		265005		23		98		0
7125.49		12195		138796		47.6532		265147		7		97		0
7126		12534		141291		49.808		281501		0		99		0
7126.49		12532		141776		50.6153		287085		0		98		0
7127.01		12516		142786		50.5532		288767		20		100		0
7127.49		12510		142741		51.0205		291430		18		98		0
7128		12487		142912		51.0229		291793		46		99		0
7128.5		12473		142586		50.9969		290973		41		97		0
7129		12455		142138		51.0654		290465		58		98		0
7129.49		12459		143157		50.7958		290945		64		98		0
7130		12427		142713		50.5582		288649		0		98		0
7130.49		12428		142308		50.4422		287156		0		97		0
7131		12430		141598		50.2135		284410		0		99		0
7131.49		12415		141640		49.7401		281815		0		96		0
7132		12406		140646		49.4916		278461		0		97		0
7132.5		12414		139392		48.9763		273191		0		99		0
7133.01		12409		139607		48.4836		270996		31		98		0
7133.49		12396		139027		47.9906		267311		54		97		0
7133.99		12390		137978		47.7283		263963		98		97		0
7134.49		12381		137510		47.2911		260886		37		96		0
7135		12395		138411		46.8152		260245		130		97		0
7135.49		12381		137000		46.8038		257537		30		96		0
7135.99		12376		136696		46.465		255339		214		96		0
7136.49		12380		136080		46.2825		253325		0		97		0
7137		12371		136072		46.1661		252763		54		99		0
7137.49		12155		134394		45.4912		246555		7		98		0
7138		12344		135508		45.494		248611		49		99		0
7138.5		12367		135302		45.1786		246805		0		98		0
7139.01		12357		134315		45.338		245719		0		98		0
7139.5		12367		134312		45.1603		244917		50		97		0
7139.99		12367		133457		45.0707		242961		85		98		0
7140.49		12369		132942		44.8895		241228		62		97		0
7141		12359		133227		44.5664		240336		14		96		0
7141.49		12364		132922		44.4852		239435		1		97		0
7142		12390		132933		44.2058		238256		0		96		0
7142.49		12392		132678		44.102		237357		59		96		0
7143.01		12386		132294		43.9557		236053		0		97		0
7143.5		12374		131094		43.787		233210		77		99		0
7144		12169		130322		42.8526		228046		0		98		0
7144.5		12353		130763		42.9895		229367		0		98		0
7145		12358		130356		42.8527		228105		2		95		0
7145.49		12357		129732		42.7103		226449		70		98		0
7145.99		12370		128627		42.5073		223728		2		98		0
7146.49		12367		128182		42.3666		222409		29		98		0
7147		12364		127853		41.8961		220042		50		96		0
7147.49		12360		127189		41.8654		218784		0		96		0
7147.99		12335		126609		41.6559		217004		0		96		0
7148.5		12332		126228		41.2004		214675		0		99		0
7149		12335		126618		40.788		213839		0		97		0
7149.5		12332		125744		40.808		212434		18		98		0
7149.99		12339		125060		40.7341		211015		0		98		0
7150.5		12338		125412		40.3406		210213		0		99		0
7151		12331		124418		40.3715		208655		0		96		0
7151.49		12321		124309		40.1639		207749		77		97		0
7152		12317		124175		39.9447		206768		68		97		0
7152.5		12302		124108		40.1085		207222		12		97		0
7153		12304		124050		39.9129		206450		2		96		0
7153.49		12293		123394		40.0756		205916		0		97		0
7154		12286		123544		39.7354		205002		4		99		0
7154.5		12274		123757		39.7847		205524		0		97		0
7155		12288		123428		39.9139		205419		0		96		0
7155.5		12271		123724		39.9094		205896		11		96		0
7156		12272		122953		40.0431		205069		7		97		0
7156.5		12273		123468		40.2048		206485		36		95		0
7157		12272		123850		39.9816		206353		38		96		0
7157.5		12290		124004		40.0695		206913		7		98		0
7157.99		11925		122734		39.0306		201304		34		99		0
7158.49		12225		124460		39.7443		206553		44		98		0
7159		12233		124325		39.9792		207136		0		99		0
7159.5		12231		124786		40.1441		208477		14		99		0
7159.99		12227		124859		40.2316		208905		28		97		0
7161		12228		125228		40.25		209586		19		97		0
7162		12215		125027		40.5462		210293		0		96		0
7163		12202		126081		40.7157		212672		9		96		0
7164		12185		126990		40.6521		213976		0		98		0
7165		12176		126343		41.234		214994		38		97		0
7166		12172		127136		41.4185		217024		0		97		0
7167		12155		126222		41.5886		216091		0		97		0
7168		12146		127969		41.7156		219560		0		97		0
7169		12135		128281		41.8329		220539		0		96		0
7170		12130		129134		42.1064		223054		0		98		0
7171		12126		128650		42.3059		222986		0		98		0
7172		12112		128940		42.6549		224849		0		98		0
7173		12103		130083		42.6482		226816		6		96		0
7174		12101		130787		42.7594		228487		35		96		0
7175		12093		129995		42.961		227905		17		96		0
7176		12100		130880		42.78		228731		3		95		0
7177		12095		130608		42.9459		228919		21		98		0
7178		12097		130615		42.7822		228277		15		100		0
7179		12090		130945		42.9728		229619		0		100		0
7180		12092		130636		43.1566		229818		5		100		0
7181		12075		130723		43.0786		229655		0		98		0
7182		12064		130452		42.8892		228419		1		96		0
7183		12047		130752		42.8447		228766		41		99		0
7184		12030		131154		42.8723		229580		0		100		0
7185		12015		130387		43.1663		229418		51		99		0
7186		12020		130683		42.9507		229070		0		99		0
7187		12011		130773		42.8862		228969		0		98		0
7188		11995		130580		42.9022		228695		0		97		0
7189.01		11987		130640		42.7397		228151		6		96		0
7190		11976		130671		42.5771		227559		0		100		0
7191.02		11965		130669		42.4665		227118		2		98		0
7192		11958		130377		42.4889		226699		20		97		0
7193.01		11955		130126		42.4229		226003		0		98		0
7194		11936		129306		42.4981		224872		0		95		0
7195.01		11925		129580		42.2509		224384		35		94		0
7195.99		11918		128774		42.3272		223284		0		95		0
7197.01		11917		129033		42.0243		222564		45		97		0
7197.99		11910		129219		41.9435		222575		11		97		0
7199		11893		128098		41.984		220798		23		96		0
7200		11882		128554		41.905		221282		8		97		0
7201		11862		128682		41.6241		220437		37		98		0
7202		11843		128675		41.4015		219588		0		95		0
7203		11826		127804		41.3782		218014		0		96		0
7204		11818		127632		41.5026		218184		27		96		0
7204.99		11792		127978		41.3469		218195		26		96		0
7206.01		11784		127977		41.2436		217809		0		98		0
7207		11767		127813		41.3694		217997		23		97		0
7208		11762		126969		41.3096		216337		0		98		0
7209		11750		127146		41.2484		216413		49		96		0
7210		11744		127374		40.8496		215339		0		96		0
7211		11730		127154		40.9381		215289		7		96		0
7212		11729		126879		40.9564		214890		0		96		0
7213		11724		127057		40.7297		214369		0		96		0
7214		11710		126988		40.8065		214530		0		97		0
7215		11700		126626		40.7549		213732		0		98		0
7216		11692		127292		40.6705		214551		67		98		0
7217		11689		126213		40.578		212401		0		98		0
7218		11680		126299		40.722		213062		2		98		0
7219		11667		126355		40.6396		212861		22		96		0
7220		11658		125927		40.5911		211967		0		95		0
7221		11645		126183		40.5744		212338		0		94		0
7222		11647		126085		40.5517		212092		56		98		0
7223		11630		125971		40.5809		212004		0		96		0
7224		11612		125544		40.6427		211505		60		95		0
7225		11605		125773		40.7029		212106		83		96		0
7226		11596		126643		40.4976		212837		0		96		0
7227		11595		125417		40.2907		210046		0		98		0
7228.01		11599		125911		40.5029		211625		0		96		0
7229		11601		125992		40.2639		210914		0		98		0
7230		11593		126196		40.447		211905		0		96		0
7231		11598		126489		40.3669		212112		17		96		0
7232		11593		125320		40.5733		210882		0		97		0
7233		11583		125583		40.4498		210886		0		99		0
7234.01		11593		125577		40.4179		210763		0		98		0
7235		11551		125779		40.4436		211193		31		97		0
7236		11547		125890		40.7075		212320		21		96		0
7237		11548		126055		40.2917		211118		0		97		0
7238.02		11534		126122		40.4066		211637		18		97		0
7239		11513		125693		40.2402		210330		12		95		0
7240.01		11498		125969		40.3856		211306		0		95		0
7241		11487		124947		40.5581		210200		59		94		0
7242		11470		126198		40.2843		211331		0		96		0
7243		11468		126099		40.2538		211058		0		99		0
7244		11467		125450		40.3997		210486		0		99		0
7245.01		11463		126246		40.315		211521		26		98		0
7246		11447		125554		40.2382		210091		0		95		0
7247.01		11463		126136		40.55		212171		0		95		0
7248		11461		126325		40.3559		211798		61		95		0
7249.01		11450		125423		40.5708		211046		22		98		0
