# XAS / LUCIA / SOLEIL : 
# Date : jeu. 27 mai 2021
#
# TARGET : DR13-01-01_POI2
# Total number of scan(s) : 1
# Scan N° : 1
# Coordinates : 
#               Horizontal : 568.85
#               Vertical : -22.025
#               Depth : 13399.4
#               Rotation : 4.996
# ROI window : 
#               ROI_inf : 1295
#               ROI_sup : 1365
#
# Start of this scan : 18:42:26
# End of this scan : 18:59:15
#
# I0 current at start (µA) : 0
# USER COMMENTS : 
# 
# EXPERIMENTAL CONFIGURATION : 
# Undulator Harmonic : 21       Offset : nan
# Undulator Polarization : 0
# Low pass filter angle (°) : 0.319447         translation (µm) : -147
# Monochromator Crystal : 3: Si311
#
# SCAN : 
# Range		From(eV)	To(eV)		Step(eV)	Time(sec)
## 1		7070		7105		2		1
## 2		7105.1		7121		0.1		1
## 3		7121.5		7160		0.5		1
## 4		7161		7250		1		1
#
# Energy	Io		FY		DeadTime		FY_c		TEY		It		Ctr4
7069.99		13889		1423		4.24883		1486.14		0		68		0
7072		13797		1473		4.12144		1536.32		0		67		0
7073.99		13728		1470		4.1599		1533.8		0		68		0
7076		13699		1532		4.12723		1597.95		0		70		0
7078		13660		1549		4.28931		1618.42		0		69		0
7080		13649		1650		4.09597		1720.47		0		69		0
7082		13638		1608		4.24714		1679.32		0		70		0
7084.01		13622		1682		4.23571		1756.4		0		67		0
7086		13605		1748		4.06445		1822.06		0		69		0
7088		13588		1867		4.37808		1952.48		0		70		0
7090		13560		1901		4.25411		1985.46		0		70		0
7092		13529		2010		4.24698		2099.15		0		69		0
7094		13529		2089		4.19635		2180.5		0		70		0
7096		13493		2136		4.16736		2228.89		0		66		0
7098		13476		2311		4.46179		2418.93		0		67		0
7100		13474		2583		4.29971		2699.05		0		70		0
7102		13458		2757		4.40429		2884.02		0		70		0
7104		13412		3063		4.61866		3211.32		0		67		0
7105.1		13387		3343		4.4809		3499.82		0		68		0
7105.2		13387		3361		4.43213		3516.87		0		69		0
7105.3		13386		3429		4.58931		3593.94		0		68		0
7105.41		13370		3319		4.60563		3479.24		0		69		0
7105.51		13364		3409		4.38243		3565.24		0		67		0
7105.61		13345		3481		4.48371		3644.4		0		68		0
7105.71		13339		3513		4.37558		3673.75		0		67		0
7105.81		13348		3473		4.34384		3630.71		0		67		0
7105.9		13341		3410		4.71846		3578.87		0		68		0
7106		13347		3523		4.42138		3685.97		0		67		0
7106.09		13345		3550		4.60262		3721.28		0		67		0
7106.19		13336		3560		4.55939		3730.07		0		69		0
7106.29		13333		3650		4.56634		3824.65		0		68		0
7106.4		13328		3682		4.41546		3852.09		0		68		0
7106.5		13336		3520		4.49248		3685.57		0		70		0
7106.6		13328		3616		4.58976		3789.95		0		69		0
7106.7		13311		3655		4.70438		3835.43		0		67		0
7106.8		13314		3584		4.49808		3752.8		0		67		0
7106.9		13307		3704		4.5783		3881.72		0		68		0
7107		13307		3707		4.49027		3881.28		0		69		0
7107.09		13299		3790		4.37062		3963.22		0		66		0
7107.2		13303		4007		4.61734		4200.97		0		70		0
7107.3		13294		3938		4.52003		4124.43		0		70		0
7107.4		13293		4022		4.6456		4217.95		0		69		0
7107.51		13292		3867		4.49066		4048.82		0		68		0
7107.61		13281		3832		4.62544		4017.84		0		67		0
7107.71		13273		4019		4.55456		4210.78		0		68		0
7107.8		13280		3957		4.40627		4139.39		0		69		0
7107.9		13268		4036		4.60317		4230.75		0		68		0
7108		13243		3982		4.53024		4170.95		0		67		0
7108.09		13263		4119		4.60627		4317.89		0		67		0
7108.19		13256		4190		4.77162		4399.95		0		68		0
7108.29		13253		4262		4.68528		4471.5		0		70		0
7108.4		13249		4394		4.63834		4607.72		0		67		0
7108.5		13243		4362		4.76893		4580.44		0		68		0
7108.6		13235		4248		4.5448		4450.26		0		69		0
7108.7		13232		4383		4.42256		4585.81		0		68		0
7108.8		13235		4472		4.57619		4686.46		0		67		0
7108.9		13224		4462		4.33539		4664.21		0		69		0
7109		13220		4475		4.56992		4689.3		0		70		0
7109.1		13218		4782		4.57606		5011.32		0		67		0
7109.2		13204		4590		4.75395		4819.1		0		71		0
7109.3		13223		4755		4.73379		4991.28		0		69		0
7109.4		13216		4876		4.61219		5111.76		0		68		0
7109.51		13209		4844		4.75293		5085.72		0		69		0
7109.61		13201		4985		4.74106		5233.1		0		70		0
7109.7		13201		4948		4.9095		5203.46		0		70		0
7109.81		13198		5142		4.90947		5407.48		0		67		0
7109.9		13183		5200		4.83277		5464.07		0		68		0
7109.99		13185		5310		4.85699		5581.07		0		69		0
7110.1		13195		5438		5.11933		5731.41		0		69		0
7110.19		13200		5547		4.99264		5838.5		0		68		0
7110.29		13192		5624		4.93328		5915.85		0		68		0
7110.4		13189		5857		4.83952		6154.87		0		68		0
7110.5		13199		5936		4.8919		6241.32		0		69		0
7110.6		13197		6176		4.93946		6496.91		0		68		0
7110.7		13196		6265		4.8521		6584.49		0		68		0
7110.8		13190		6534		5.12042		6886.62		0		69		0
7110.9		13184		6807		5.16189		7177.49		0		68		0
7111		13186		7145		5.29514		7544.49		0		70		0
7111.1		13172		7540		5.30541		7962.44		0		70		0
7111.2		13177		7898		5.31027		8340.93		0		67		0
7111.3		13171		8571		5.5559		9075.21		0		68		0
7111.41		13168		8926		5.50394		9445.9		0		67		0
7111.51		13172		9645		5.75773		10234.3		0		68		0
7111.61		13174		10127		5.98048		10771.2		0		67		0
7111.71		13169		10817		5.85494		11489.7		0		69		0
7111.8		13160		11532		6.18787		12292.7		0		68		0
7111.9		13163		12110		6.33734		12929.4		0		69		0
7111.99		13160		12562		6.30858		13407.8		0		67		0
7112.09		13155		13332		6.54509		14265.7		0		68		0
7112.19		13167		13600		6.56934		14556.3		0		70		0
7112.29		13161		14112		6.86794		15152.7		0		68		0
7112.4		13160		14253		6.66314		15270.5		0		70		0
7112.5		13151		14103		6.856		15141.1		0		68		0
7112.6		13138		13848		6.74144		14849		0		68		0
7112.7		13141		14122		6.62589		15124.1		0		69		0
7112.8		13152		13727		6.75242		14721		0		69		0
7112.9		13143		13359		6.48634		14285.6		0		69		0
7113		13132		13297		6.35482		14199.3		0		67		0
7113.1		13131		13280		6.51629		14205.7		0		67		0
7113.2		13125		13012		6.23891		13877.8		0		69		0
7113.3		13123		13364		6.47062		14288.6		0		69		0
7113.41		13124		13210		6.54902		14135.8		0		67		0
7113.51		13120		13529		6.58506		14482.7		0		68		0
7113.61		13122		13679		6.68925		14659.6		0		69		0
7113.7		13113		14051		6.67376		15055.8		0		68		0
7113.8		13107		13886		6.70224		14883.5		0		67		0
7113.9		13102		14076		6.81498		15105.4		0		69		0
7113.99		13094		14311		6.70845		15340.1		0		67		0
7114.1		13092		14276		6.93958		15340.6		0		66		0
7114.19		13100		14257		6.8144		15299.6		0		67		0
7114.29		13105		14117		6.91226		15165.3		0		67		0
7114.4		13100		13975		6.77914		14991.3		0		70		0
7114.5		13102		13577		6.41328		14507.4		0		66		0
7114.6		13102		13395		6.43517		14316.3		0		67		0
7114.7		13107		12912		6.45091		13802.4		0		69		0
7114.8		13105		12762		6.66282		13673		0		68		0
7114.9		13104		12666		6.35197		13525.1		0		66		0
7115		13101		12587		6.28922		13431.8		0		66		0
7115.1		13115		12326		6.37498		13165.3		0		65		0
7115.2		13114		12281		6.27693		13103.5		0		68		0
7115.3		13122		12243		6.46058		13088.6		0		69		0
7115.41		13122		12418		6.50861		13282.5		0		67		0
7115.51		13114		12715		6.44979		13591.6		0		68		0
7115.61		13107		12696		6.56048		13587.4		0		69		0
7115.7		13105		13098		6.25757		13972.3		0		66		0
7115.8		13108		13069		6.51821		13980.3		0		69		0
7115.9		13112		13411		6.93117		14409.8		0		68		0
7115.99		13117		13847		6.64918		14833.3		0		68		0
7116.09		13103		14442		6.81651		15498.5		0		68		0
7116.19		13107		14983		7.04461		16118.5		0		67		0
7116.3		13105		15529		6.8969		16679.4		0		66		0
7116.4		13104		16201		7.02026		17424.2		0		66		0
7116.5		13109		16868		7.2207		18180.8		0		65		0
7116.6		13104		17465		7.48269		18877.5		0		69		0
7116.7		13107		18453		7.62579		19976.4		0		68		0
7116.8		13102		19191		7.81002		20816.8		0		69		0
7116.9		13104		20393		8.20154		22215		0		68		0
7117		13100		21588		8.4424		23578.6		0		67		0
7117.1		13102		22594		8.68778		24743.7		0		68		0
7117.2		13087		23841		8.99453		26197.3		0		65		0
7117.31		13091		25026		9.2263		27569.7		0		65		0
7117.41		13093		26557		9.37472		29304.2		0		67		0
7117.51		13094		27453		9.51795		30340.8		0		67		0
7117.61		13098		28773		9.94704		31951.2		0		67		0
7117.7		13093		30408		10.2653		33886.6		0		67		0
7117.8		13094		32146		10.6753		35987.8		0		67		0
7117.89		13090		33479		11.0894		37654.7		0		68		0
7117.99		13091		35417		11.5597		40046.2		0		68		0
7118.1		13088		37583		12.1689		42790.1		0		66		0
7118.2		13090		39708		12.4466		45352.9		0		67		0
7118.3		13092		41585		13.0581		47830.8		0		67		0
7118.4		13094		43585		13.5117		50394.1		0		69		0
7118.5		13088		45794		14.0368		53271.6		0		67		0
7118.6		13084		47494		14.4428		55511.4		0		67		0
7118.7		13087		50278		15.0478		59183.9		0		68		0
7118.8		13087		52397		15.6512		62119.4		0		69		0
7118.9		13086		54434		16.2196		64972.3		0		69		0
7119		13082		56409		16.878		67862.9		0		68		0
7119.1		13073		59489		17.277		71913.5		0		68		0
7119.2		13072		60853		17.8622		74086.5		0		68		0
7119.31		13067		63417		18.334		77654.1		0		66		0
7119.41		13061		65072		18.8931		80229.9		0		68		0
7119.5		13073		67111		19.3979		83262.1		0		66		0
7119.61		13058		68673		19.9061		85740.6		0		67		0
7119.7		13067		70894		20.5086		89184.5		0		69		0
7119.8		13052		72064		21.0699		91301		0		67		0
7119.89		13049		74516		21.3021		94686.1		0		66		0
7120		13050		76250		21.8624		97584.3		0		65		0
7120.09		13043		78413		22.5484		101241		0		68		0
7120.19		13045		79790		23.113		103776		0		67		0
7120.3		13058		81907		23.4521		107001		0		65		0
7120.4		13053		82917		24.116		109268		0		68		0
7120.5		13044		84526		24.4627		111900		0		67		0
7120.6		13063		86223		24.526		114242		0		70		0
7120.7		13047		87315		25.284		116863		0		68		0
7120.8		13036		88532		25.7341		119209		0		66		0
7120.9		13043		89772		26.1259		121520		0		67		0
7121.5		13037		95030		27.7652		131557		0		67		0
7121.99		13022		100060		29.0524		141034		0		66		0
7122.5		13014		104752		30.6503		151049		0		67		0
7123		13008		110040		32.6179		163307		0		68		0
7123.5		12991		114321		34.2527		173879		0		67		0
7123.99		12970		119363		36.29		187353		0		66		0
7124.5		12968		123517		38.2156		199916		0		65		0
7125		13002		127695		39.4524		210900		0		66		0
7125.5		12724		128285		39.7425		212895		0		68		0
7125.99		12878		130110		41.1436		221063		0		70		0
7126.5		12849		131672		41.5224		225167		0		67		0
7127		12838		132108		41.4713		225715		0		69		0
7127.5		12824		131526		41.4455		224621		0		69		0
7127.99		12808		130850		41.4225		223379		0		68		0
7128.5		12798		131727		40.9609		223118		0		67		0
7129		12778		130572		41.0521		221504		0		67		0
7129.5		12778		130333		40.9274		220632		0		66		0
7130		12749		130178		40.5844		219098		0		67		0
7130.49		12747		129334		40.266		216517		0		69		0
7130.99		12738		129512		39.9761		215767		0		70		0
7131.5		12739		127926		39.6603		212010		0		69		0
7131.99		12729		126752		39.4065		209184		0		69		0
7132.49		12724		126151		38.9658		206689		0		67		0
7133		12713		125660		38.5076		204351		0		67		0
7133.5		12722		124211		38.3444		201459		0		67		0
7133.99		12717		124252		38.1165		200784		0		67		0
7134.49		12711		123040		37.7083		197522		0		67		0
7134.99		12716		122895		37.3959		196305		0		68		0
7135.5		12713		121617		37.3638		194164		0		67		0
7135.99		12694		122118		37.2451		194595		0		66		0
7136.5		12681		120974		37.1004		192329		0		66		0
7137		12647		121321		36.519		191114		0		65		0
7137.5		12510		120209		36.2834		188662		0		66		0
7137.99		12685		120562		36.5134		189901		0		67		0
7138.5		12687		119902		36.3636		188417		0		66		0
7139		12679		119501		36.1548		187173		0		70		0
7139.5		12683		119413		35.9843		186537		0		69		0
7140		12689		118899		35.966		185681		0		69		0
7140.49		12697		118931		35.7937		185233		0		68		0
7140.99		12685		118878		35.8305		185256		0		67		0
7141.5		12693		118435		35.4737		183545		0		66		0
7141.99		12685		117876		35.365		182372		0		68		0
7142.49		12668		117294		35.4045		181582		0		66		0
7142.99		12665		116570		35.2015		179896		0		69		0
7143.5		12616		116718		34.4694		178112		0		68		0
7143.99		12538		115597		34.2932		175928		0		65		0
7144.49		12641		115211		34.4837		175851		0		66		0
7144.99		12645		114825		34.1721		174432		0		65		0
7145.5		12639		114651		33.9575		173602		0		67		0
7145.99		12654		113583		33.9655		172005		0		67		0
7146.49		12648		113318		33.6496		170787		0		66		0
7147		12657		112206		33.5058		168745		0		66		0
7147.5		12635		112116		33.4377		168438		0		69		0
7148		12645		111473		33.1344		166712		0		67		0
7148.49		12639		110785		32.9644		165263		0		69		0
7149		12630		111000		32.5645		164602		0		66		0
7149.5		12632		110137		32.5084		163186		0		67		0
7149.99		12619		110068		32.3832		162782		0		67		0
7150.49		12620		109315		32.2157		161269		0		69		0
7150.99		12606		108733		32.0836		160098		0		67		0
7151.5		12599		108440		31.9229		159290		0		68		0
7152		12599		108003		31.8895		158570		0		68		0
7152.49		12594		107918		31.9094		158492		0		68		0
7152.99		12587		108081		31.5746		157954		0		69		0
7153.5		12579		108057		31.6175		158019		0		68		0
7154		12583		107890		31.7998		158196		0		66		0
7154.5		12580		107229		31.6322		156841		0		69		0
7155		12578		107827		31.6554		157770		0		68		0
7155.5		12584		107550		31.6721		157403		0		68		0
7156		12577		107533		31.623		157265		0		68		0
7156.5		12578		107868		31.7694		158093		0		68		0
7156.99		12583		108177		31.8068		158633		0		67		0
7157.5		12601		108165		31.9384		158922		0		66		0
7157.99		12325		106878		31.2135		155376		0		67		0
7158.5		12543		108326		31.9781		159252		0		67		0
7159		12543		108294		31.7265		158618		0		69		0
7159.5		12540		108322		31.9189		159107		0		68		0
7159.99		12551		108737		31.942		159771		0		69		0
7161.01		12546		108378		32.1271		159678		0		67		0
7162.01		12533		109746		32.2894		162081		0		66		0
7163.01		12517		109160		32.6075		161976		0		66		0
7164.01		12511		110251		32.6314		163653		0		67		0
7165		12501		110759		32.6914		164554		0		66		0
7166.01		12490		110988		32.9319		165486		0		66		0
7167		12478		111496		33.0696		166585		0		66		0
7168.01		12482		111994		33.1885		167627		0		68		0
7169.01		12461		112058		33.3972		168248		0		66		0
7170		12455		112286		33.4415		168703		0		66		0
7171		12457		113457		33.7185		171174		0		65		0
7172.01		12441		114341		33.7881		172689		0		67		0
7173		12429		113997		34.1485		173112		0		65		0
7174		12427		115049		34.0426		174429		0		65		0
7175		12421		114874		34.141		174424		0		66		0
7176.02		12411		115245		34.2315		175228		0		65		0
7177		12403		114371		34.328		174155		0		68		0
7178.01		12399		114455		34.4033		174483		0		66		0
7179		12418		114747		34.7068		175741		0		66		0
7180.01		12411		114768		34.3578		174839		0		68		0
7181		12414		114423		34.5302		174772		0		67		0
7182		12393		115059		34.3206		175183		0		68		0
7183		12367		114990		34.5614		175722		0		68		0
7184.01		12371		115654		34.4289		176380		0		69		0
7185		12364		115478		34.2497		175631		0		69		0
7186		12366		114763		34.372		174869		0		67		0
7187		12353		114917		34.3841		175136		0		67		0
7188		12353		115189		34.2483		175188		0		66		0
7189		12339		114622		34.3764		174666		0		68		0
7190.01		12322		114847		34.1524		174413		0		69		0
7191		12310		114569		34.0725		173780		0		69		0
7192.01		12291		114018		34.0706		172939		0		66		0
7193		12283		114017		33.7528		172108		0		69		0
7194		12278		114098		33.7564		172240		0		67		0
7195		12260		113807		33.545		171254		0		67		0
7196		12267		113501		33.8046		171464		0		65		0
7197		12256		113176		33.8535		171099		0		66		0
7198		12266		113279		33.6619		170760		0		65		0
7199		12256		112726		33.5387		169611		0		67		0
7200		12239		112322		33.4862		168870		0		66		0
7201		12227		112793		33.3278		169176		0		66		0
7202		12217		112239		33.1096		167795		0		67		0
7203		12206		112444		33.374		168769		0		68		0
7204		12200		112322		33.1379		167991		0		65		0
7205		12196		112487		33.1792		168341		0		65		0
7206		12182		112159		33.0175		167445		0		67		0
7207		12170		111784		33.1909		167319		0		65		0
7208		12159		111560		33.2911		167234		0		67		0
7209		12137		111978		32.9161		166922		0		67		0
7210		12129		111521		32.8772		166145		0		68		0
7211		12109		110929		32.7262		164892		0		66		0
7212.01		12094		110698		33.0929		165450		0		66		0
7213.01		12079		111205		32.7958		165473		0		66		0
7214.01		12050		109950		32.7782		163563		0		66		0
7215		12044		110340		32.794		164182		0		67		0
7216		12032		110846		32.7088		164726		0		69		0
7217		12020		110501		32.775		164375		0		67		0
7218		12016		110742		32.5526		164190		0		67		0
7219		12020		110374		32.5911		163738		0		68		0
7220		12008		110046		32.3896		162765		0		68		0
7221		12016		110430		32.5373		163690		0		65		0
7222.01		12014		109967		32.5364		163002		0		66		0
7223		11988		110231		32.2342		162665		0		66		0
7224.01		11981		110169		32.5882		163427		0		67		0
7225		11976		109828		32.442		162568		0		68		0
7226		11976		109799		32.4687		162590		0		69		0
7227		11956		109791		32.1153		161731		0		68		0
7227.99		11962		110400		32.5861		163764		0		68		0
7229.01		11960		109351		32.3245		161581		0		68		0
7230.01		11972		109410		32.3053		161623		0		67		0
7231.02		11952		109884		32.3035		162319		0		67		0
7232		11963		109126		32.4259		161491		0		66		0
7233.01		11961		110311		32.1158		162499		0		66		0
7234		11957		110035		32.473		162950		0		66		0
7235.01		11951		109927		32.3813		162569		0		67		0
7236		11941		109723		32.1358		161680		0		68		0
7237		11930		109881		32.24		162162		0		69		0
7238		11923		109473		32.1908		161443		0		69		0
7239		11904		109440		32.2653		161572		0		69		0
7240		11888		109556		32.2677		161749		0		65		0
7241.01		11877		108766		32.16		160327		0		66		0
7242		11871		109254		32.4406		161715		0		68		0
7243		11859		109453		32.337		161762		0		68		0
7244		11838		109502		32.2511		161629		0		65		0
7245		11833		109621		32.1633		161595		0		66		0
7246		11813		109454		32.0311		161035		0		65		0
7247		11814		109835		32.1667		161919		0		65		0
7248		11794		109149		32.1244		160808		0		64		0
7249		11800		109176		32.3642		161418		0		67		0
