# XAS / LUCIA / SOLEIL : 
# Date : jeu. 27 mai 2021
#
# TARGET : DR13-01-01_POI5
# Total number of scan(s) : 1
# Scan N° : 1
# Coordinates : 
#               Horizontal : 573.852
#               Vertical : 68.725
#               Depth : 13399.4
#               Rotation : 4.996
# ROI window : 
#               ROI_inf : 1295
#               ROI_sup : 1365
#
# Start of this scan : 19:32:33
# End of this scan : 19:49:11
#
# I0 current at start (µA) : 0
# USER COMMENTS : 
# 
# EXPERIMENTAL CONFIGURATION : 
# Undulator Harmonic : 21       Offset : nan
# Undulator Polarization : 0
# Low pass filter angle (°) : 0.319447         translation (µm) : -147.5
# Monochromator Crystal : 3: Si311
#
# SCAN : 
# Range		From(eV)	To(eV)		Step(eV)	Time(sec)
## 1		7070		7105		2		1
## 2		7105.1		7121		0.1		1
## 3		7121.5		7160		0.5		1
## 4		7161		7250		1		1
#
# Energy	Io		FY		DeadTime		FY_c		TEY		It		Ctr4
7069.99		13896		1416		4.19085		1477.94		0		68		0
7072		13799		1481		4.36893		1548.66		0		66		0
7074		13737		1433		4.14768		1495.01		0		66		0
7076		13702		1427		4.20256		1489.6		0		67		0
7078		13667		1539		4.07242		1604.34		0		66		0
7080		13657		1583		4.01117		1649.15		0		67		0
7082		13672		1680		4.09379		1751.71		0		68		0
7084		13653		1658		4.27382		1732.02		0		66		0
7086		13646		1753		4.09293		1827.81		0		66		0
7088		13614		1816		4.24902		1896.59		0		66		0
7090		13587		1915		4.2785		2000.6		0		67		0
7092		13565		1961		4.2215		2047.43		0		68		0
7094		13533		2134		4.21578		2227.92		0		70		0
7096		13497		2246		4.26016		2345.94		0		68		0
7098		13469		2349		4.12806		2450.14		0		66		0
7100		13464		2493		4.15366		2601.04		0		66		0
7102		13442		2792		4.15584		2913.06		0		67		0
7104		13391		3088		4.51274		3233.94		0		66		0
7105.1		13373		3372		4.516		3531.48		0		67		0
7105.2		13367		3305		4.34602		3455.16		0		69		0
7105.3		13367		3294		4.1712		3437.38		0		67		0
7105.41		13358		3340		4.51053		3497.77		0		66		0
7105.51		13352		3440		4.46211		3600.67		0		68		0
7105.61		13358		3487		4.61997		3655.9		0		66		0
7105.71		13347		3492		4.44365		3654.39		0		65		0
7105.81		13350		3478		4.4632		3640.48		0		67		0
7105.9		13343		3462		4.44243		3622.95		0		68		0
7106		13342		3533		4.37501		3694.64		0		69		0
7106.09		13346		3497		4.52765		3662.84		0		69		0
7106.19		13342		3550		4.41933		3714.14		0		67		0
7106.29		13331		3612		4.3048		3774.48		0		66		0
7106.4		13331		3579		4.42042		3744.52		0		70		0
7106.5		13326		3525		4.39222		3686.94		0		70		0
7106.6		13321		3698		4.43706		3869.7		0		69		0
7106.7		13314		3614		4.43094		3781.56		0		67		0
7106.8		13307		3701		4.44528		3873.17		0		69		0
7106.9		13311		3664		4.50768		3836.96		0		69		0
7107		13302		3783		4.44624		3959.03		0		68		0
7107.09		13304		3925		4.59462		4114.02		0		70		0
7107.2		13303		3818		4.5384		3999.51		0		68		0
7107.3		13300		3815		4.44426		3992.43		0		68		0
7107.4		13300		3871		4.51926		4054.22		0		69		0
7107.51		13303		3900		4.47795		4082.83		0		70		0
7107.61		13303		3901		4.33773		4077.89		0		67		0
7107.71		13285		3923		4.38944		4103.1		0		67		0
7107.8		13287		4012		4.6801		4208.98		0		70		0
7107.9		13294		4033		4.4528		4220.95		0		69		0
7108		13287		4202		4.6849		4408.54		0		69		0
7108.09		13287		4067		4.74838		4269.74		0		67		0
7108.19		13284		4195		4.52618		4393.87		0		69		0
7108.29		13281		4310		4.44326		4510.41		0		70		0
7108.4		13279		4354		4.55389		4561.74		0		68		0
7108.5		13279		4309		4.63603		4518.48		0		70		0
7108.6		13263		4387		4.62976		4599.97		0		68		0
7108.7		13268		4376		4.62861		4588.38		0		70		0
7108.8		13266		4493		4.5352		4706.45		0		68		0
7108.9		13263		4611		4.67085		4836.93		0		68		0
7109		13259		4654		4.73133		4885.13		0		70		0
7109.1		13259		4599		4.66122		4823.85		0		69		0
7109.2		13263		4683		4.56518		4907.01		0		68		0
7109.31		13254		4875		4.65322		5112.91		0		68		0
7109.4		13261		4826		4.71763		5064.95		0		70		0
7109.51		13257		5021		4.45667		5255.21		0		69		0
7109.61		13277		4916		4.63446		5154.9		0		67		0
7109.7		13267		5141		4.58813		5388.22		0		68		0
7109.81		13276		5147		4.77853		5405.29		0		67		0
7109.9		13277		5151		4.78438		5409.83		0		67		0
7110		13272		5317		4.95117		5593.97		0		68		0
7110.09		13273		5448		4.78499		5721.79		0		67		0
7110.19		13272		5562		4.90067		5848.62		0		67		0
7110.29		13274		5722		4.71318		6005.03		0		67		0
7110.4		13273		5954		4.87238		6258.96		0		69		0
7110.5		13276		5987		5.12138		6310.17		0		67		0
7110.6		13270		6268		4.98918		6597.14		0		68		0
7110.7		13269		6414		4.89069		6743.82		0		68		0
7110.8		13262		6690		5.06134		7046.66		0		67		0
7110.9		13263		6858		5.09008		7225.8		0		65		0
7111		13266		7194		5.28272		7595.23		0		66		0
7111.1		13258		7563		5.19565		7977.48		0		67		0
7111.2		13245		8072		5.35158		8528.4		0		68		0
7111.31		13252		8358		5.49901		8844.35		0		68		0
7111.41		13246		8982		5.50694		9505.46		0		68		0
7111.51		13260		9652		5.59158		10223.7		0		66		0
7111.61		13258		10175		5.91914		10815.2		0		66		0
7111.7		13261		10873		6.02806		11570.5		0		65		0
7111.8		13250		11496		5.97181		12226.1		0		67		0
7111.9		13252		12149		6.37696		12976.5		0		67		0
7111.99		13255		13014		6.44845		13911		0		68		0
7112.09		13249		13662		6.5264		14615.9		0		67		0
7112.19		13243		13917		6.77997		14929.2		0		65		0
7112.29		13246		14381		6.93072		15451.9		0		66		0
7112.4		13240		14475		6.87424		15543.5		0		67		0
7112.5		13233		14639		6.79302		15705.9		0		68		0
7112.6		13229		14501		6.71981		15545.6		0		65		0
7112.7		13229		14128		6.77504		15154.7		0		68		0
7112.8		13232		13961		6.57267		14943.2		0		68		0
7112.9		13238		13507		6.4328		14435.6		0		67		0
7113		13238		13688		6.35386		14616.7		0		68		0
7113.1		13225		13388		6.64765		14341.4		0		67		0
7113.2		13225		13127		6.33747		14015.2		0		68		0
7113.31		13230		13218		6.46122		14131		0		68		0
7113.41		13223		13287		6.70582		14242		0		67		0
7113.51		13217		13691		6.58893		14656.7		0		66		0
7113.6		13219		13774		6.88528		14792.5		0		67		0
7113.71		13223		13825		6.68794		14815.9		0		68		0
7113.8		13218		14347		6.61341		15363		0		68		0
7113.9		13205		14179		6.6705		15192.4		0		67		0
7113.99		13216		14277		6.9439		15342.4		0		67		0
7114.09		13211		14272		6.79642		15312.7		0		68		0
7114.19		13207		14297		6.88429		15354		0		67		0
7114.29		13207		14005		6.57709		14991		0		68		0
7114.4		13211		13954		6.64406		14947.1		0		69		0
7114.5		13198		13773		6.44525		14721.9		0		66		0
7114.6		13186		13107		6.54381		14024.8		0		67		0
7114.7		13195		12976		6.54218		13884.3		0		66		0
7114.8		13200		12865		6.43904		13750.4		0		69		0
7114.9		13196		12672		6.31862		13526.7		0		66		0
7115		13192		12631		6.23914		13471.5		0		65		0
7115.1		13193		12654		6.38666		13517.3		0		67		0
7115.2		13219		12552		6.31885		13398.6		0		68		0
7115.31		13211		12389		6.34035		13227.7		0		66		0
7115.41		13216		12401		6.32714		13238.6		0		68		0
7115.51		13197		12405		6.34925		13246		0		67		0
7115.61		13197		12917		6.65286		13837.6		0		66		0
7115.7		13186		13271		6.67869		14220.8		0		66		0
7115.8		13197		13122		6.52602		14038.1		0		68		0
7115.89		13191		13742		6.5481		14704.9		0		67		0
7115.99		13173		14158		6.95286		15215.9		0		66		0
7116.1		13177		14626		6.81862		15696.3		0		65		0
7116.2		13185		15040		6.65571		16112.4		0		67		0
7116.3		13188		15595		7.01824		16772.1		0		66		0
7116.4		13192		16496		7.28675		17792.5		0		69		0
7116.5		13189		17255		7.13562		18580.9		0		68		0
7116.6		13190		17820		7.55229		19275.8		0		68		0
7116.7		13195		18627		7.69914		20180.7		0		67		0
7116.8		13181		19574		8.02419		21281.7		0		67		0
7116.9		13179		20753		8.30451		22632.5		0		67		0
7117		13179		22128		8.49245		24181.6		0		68		0
7117.1		13173		22910		8.86829		25139.4		0		66		0
7117.2		13174		24267		8.90957		26640.6		0		66		0
7117.31		13169		25393		9.31962		28002.7		0		68		0
7117.41		13166		26819		9.6399		29680.1		0		69		0
7117.51		13169		27867		10.0146		30968.4		0		68		0
7117.61		13166		29262		10.2236		32594.3		0		67		0
7117.7		13166		30298		10.5988		33889.9		0		69		0
7117.8		13157		32202		10.8362		36115.5		0		66		0
7117.89		13154		33926		11.0855		38155.8		0		68		0
7117.99		13161		35718		11.7526		40474.9		0		68		0
7118.1		13147		37865		12.2041		43128.4		0		66		0
7118.19		13150		39810		12.4498		45471.1		0		66		0
7118.3		13143		42105		13.0661		48433.4		0		66		0
7118.4		13152		44099		13.6141		51048.8		0		68		0
7118.5		13150		46241		14.1052		53834.5		0		68		0
7118.6		13146		48497		14.8871		56979.6		0		67		0
7118.7		13135		50771		15.2411		59900.5		0		67		0
7118.8		13133		53215		15.8752		63257.2		0		69		0
7118.9		13130		55318		16.3034		66093.5		0		69		0
7119		13133		58051		16.8844		69843.6		0		68		0
7119.1		13135		59775		17.5867		72530.8		0		67		0
7119.21		13137		62423		18.1225		76239.5		0		66		0
7119.31		13135		64263		18.5564		78904.9		0		68		0
7119.41		13133		66052		19.3042		81853.1		0		67		0
7119.51		13126		68074		19.706		84780.9		0		67		0
7119.61		13125		69939		20.321		87775.9		0		67		0
7119.7		13127		71668		20.8245		90517.9		0		68		0
7119.8		13131		73824		21.1005		93567.1		0		68		0
7119.89		13127		75493		21.6621		96368.5		0		70		0
7120		13116		77375		22.3137		99599.2		0		69		0
7120.09		13106		79255		22.7946		102655		0		68		0
7120.19		13105		80785		23.4616		105548		0		68		0
7120.3		13102		82816		23.7238		108574		0		68		0
7120.4		13101		84062		24.1457		110820		0		69		0
7120.5		13098		85508		24.6785		113524		0		68		0
7120.6		13103		87151		25.0835		116331		0		68		0
7120.7		13101		88245		25.5665		118555		0		67		0
7120.8		13102		90136		25.7581		121409		0		70		0
7120.9		13099		91107		26.2863		123596		0		71		0
7121.5		13090		96625		28.2135		134600		0		70		0
7121.99		13076		101725		29.2211		143722		0		71		0
7122.5		13061		105797		31.1285		153615		0		69		0
7123		13050		110788		32.7175		164661		0		66		0
7123.5		13038		115452		34.3178		175774		0		66		0
7123.99		13017		119461		36.5943		188407		0		69		0
7124.5		13021		124550		38.1809		201475		0		70		0
7125		13052		127605		39.775		211880		0		69		0
7125.5		12733		128828		40.0772		214990		0		69		0
7125.99		12920		131410		41.3365		224006		0		68		0
7126.5		12919		132039		41.7138		226536		0		67		0
7127		12895		132529		41.8877		228057		0		68		0
7127.5		12881		132911		41.5843		227526		0		67		0
7127.99		12870		131577		41.6478		225488		0		69		0
7128.5		12855		131546		41.3169		224163		0		69		0
7128.99		12829		131587		41.1779		223703		0		68		0
7129.5		12826		130620		41.0574		221605		0		67		0
7129.99		12806		130165		40.7799		219799		0		67		0
7130.5		12806		129930		40.5457		218538		0		66		0
7130.99		12794		129128		40.2652		216169		0		67		0
7131.5		12783		128148		39.6733		212423		0		67		0
7131.99		12772		126935		39.3273		209213		0		67		0
7132.49		12785		126596		38.9729		207442		0		67		0
7133		12770		126371		38.7742		206402		0		68		0
7133.5		12771		124972		38.4567		203064		0		67		0
7133.99		12752		124305		37.962		200369		0		69		0
7134.49		12760		124156		38.0589		200442		0		69		0
7134.99		12744		123451		37.6074		197862		0		67		0
7135.5		12750		122605		37.6103		196515		0		66		0
7135.99		12746		122667		37.3931		195932		0		67		0
7136.49		12733		121783		37.2516		194082		0		67		0
7137		12693		121474		36.9025		192518		0		68		0
7137.5		12545		120046		36.5544		189211		0		69		0
7137.99		12710		121527		36.5692		191590		0		69		0
7138.5		12726		120365		36.6024		189857		0		67		0
7139		12722		120140		36.2518		188460		0		68		0
7139.5		12722		120200		36.357		188866		0		68		0
7139.99		12733		119456		36.0195		186707		0		67		0
7140.49		12726		119142		35.7102		185320		0		68		0
7140.99		12713		117756		36.0579		184160		0		69		0
7141.5		12718		118665		35.9682		185322		0		69		0
7142		12719		117981		35.5714		183119		0		67		0
7142.49		12713		117954		35.4484		182728		0		67		0
7142.99		12701		117163		35.2392		180917		0		68		0
7143.5		12650		116381		34.9788		178989		0		67		0
7144		12553		115709		34.2997		176116		0		66		0
7144.49		12677		115936		34.6047		177285		0		67		0
7145		12682		115616		34.1591		175599		0		69		0
7145.5		12664		114494		34.2781		174210		0		69		0
7146		12671		113889		33.8382		172137		0		68		0
7146.49		12658		113334		33.7967		171191		0		67		0
7147		12668		112822		33.5409		169761		0		68		0
7147.5		12673		112425		33.4712		168987		0		69		0
7147.99		12660		111654		33.065		166809		0		67		0
7148.49		12666		111119		32.8559		165493		0		69		0
7149		12654		110989		32.8422		165266		0		68		0
7149.5		12651		110232		32.5462		163419		0		68		0
7150		12645		110109		32.4729		163059		0		67		0
7150.49		12643		109699		32.3293		162107		0		67		0
7151		12644		109799		31.8643		161148		0		68		0
7151.5		12632		109104		31.8895		160187		0		70		0
7152		12635		108501		32.1972		160024		0		69		0
7152.49		12627		108725		31.9716		159823		0		67		0
7152.99		12623		107813		32.012		158577		0		66		0
7153.5		12611		107606		31.699		157547		0		66		0
7154		12621		108663		31.6548		158992		0		68		0
7154.5		12610		108502		31.8034		159102		0		68		0
7155		12609		108045		31.8824		158615		0		69		0
7155.5		12623		108534		31.6464		158783		0		68		0
7156		12604		108053		31.7082		158222		0		68		0
7156.49		12622		108098		31.9994		158966		0		65		0
7156.99		12617		108115		32.0189		159037		0		69		0
7157.5		12655		108580		32.0784		159861		0		69		0
7157.99		12335		107218		31.5253		156580		0		68		0
7158.5		12547		108681		31.9401		159684		0		67		0
7159		12567		108728		32.0391		159986		0		67		0
7159.5		12569		109192		32.0914		160793		0		68		0
7159.99		12578		108915		32.214		160675		0		69		0
7161.01		12565		109979		32.1949		162199		0		69		0
7162.01		12557		109943		32.4193		162684		0		68		0
7163		12546		110345		32.545		163583		0		66		0
7164.01		12527		110509		32.8167		164489		0		66		0
7165		12519		111464		32.9483		166236		0		68		0
7166.01		12512		111784		33.0987		167088		0		68		0
7167		12493		111907		33.2597		167675		0		68		0
7168.01		12481		112341		33.2954		168416		0		68		0
7169.01		12463		112776		33.404		169344		0		67		0
7170		12459		113132		33.6588		170530		0		67		0
7171		12464		113976		33.6526		171787		0		67		0
7172		12440		114561		34.2749		174303		0		66		0
7173		12433		114781		34.1932		174421		0		67		0
7174		12428		114531		34.2668		174236		0		66		0
7175		12410		114730		34.5319		175246		0		65		0
7176.02		12410		115143		34.4837		175747		0		66		0
7177		12393		114752		34.3653		174834		0		66		0
7178		12396		115297		34.2698		175409		0		67		0
7179		12399		114951		34.4436		175347		0		67		0
7180		12383		115222		34.5942		176165		0		66		0
7181		12355		115922		34.2526		176314		0		67		0
7182		12358		115017		34.4695		175517		0		68		0
7183		12344		115505		34.0463		175131		0		69		0
7184		12339		115045		34.3561		175256		0		70		0
7185		12321		115304		34.1798		175180		0		68		0
7186		12300		114796		34.0791		174142		0		66		0
7187		12298		114841		34.168		174446		0		67		0
7188		12295		115454		34.1314		175279		0		66		0
7189		12295		115035		34.3735		175287		0		66		0
7190		12288		114705		34.2956		174577		0		68		0
7191		12274		114689		33.9812		173722		0		69		0
7192.01		12261		114649		33.9364		173543		0		67		0
7193		12251		113987		34.0012		172711		0		69		0
7194		12231		113079		33.9006		171074		0		66		0
7195		12232		113646		33.8998		171930		0		66		0
7196		12226		114120		33.66		172023		0		64		0
7197		12223		112708		33.6717		169924		0		66		0
7198		12215		113180		33.4007		169942		0		66		0
7199		12216		113152		33.4731		170084		0		68		0
7200		12211		113112		33.483		170050		0		66		0
7201		12191		112819		33.2546		169029		0		67		0
7202		12179		112384		33.4483		168867		0		65		0
7203		12174		112442		33.1092		168098		0		68		0
7204		12157		112273		33.2011		168076		0		67		0
7205		12160		111930		33.3288		167884		0		66		0
7206		12142		112391		32.9932		167731		0		67		0
7207		12119		111934		33.2444		167677		0		67		0
7208		12111		111654		33.2769		167339		0		65		0
7209		12115		112393		32.923		167558		0		67		0
7210		12097		111715		33.229		167311		0		66		0
7211		12084		111232		33.1148		166303		0		66		0
7212.01		12070		111728		32.6402		165867		0		65		0
7213		12063		110166		32.9154		164219		0		65		0
7214.01		12049		110827		32.8197		164970		0		66		0
7215		12043		110656		32.7961		164657		0		65		0
7216		12029		111277		32.7353		165431		0		67		0
7217		12017		110975		32.4752		164347		0		65		0
7218		12013		110806		32.6504		164524		0		65		0
7219		12014		110984		32.6925		164891		0		67		0
7220.01		12008		110454		32.704		164132		0		66		0
7221		12018		110966		32.5545		164527		0		66		0
7222.01		12008		110220		32.6399		163628		0		67		0
7223		12000		110447		32.4283		163451		0		65		0
7224		11987		110310		32.5797		163615		0		66		0
7225		11979		110841		32.6735		164632		0		68		0
7226		11969		110021		32.4383		162845		0		66		0
7227.01		11966		110068		32.4502		162943		0		66		0
7227.99		11960		110456		32.6083		163902		0		65		0
7229.01		11958		110333		32.4088		163236		0		65		0
7230		11955		110082		32.516		163123		0		65		0
7231.02		11960		109714		32.487		162508		0		65		0
7232		11961		109989		32.4853		162911		0		67		0
7233.01		11964		110673		32.2571		163372		0		65		0
7234		11957		110750		32.1788		163297		0		67		0
7235.01		11956		110472		32.3913		163399		0		68		0
7236		11948		110088		32.4926		163076		0		67		0
7237		11944		110535		32.2604		163176		0		66		0
7238		11917		110045		32.375		162728		0		67		0
7239		11919		110397		32.2489		162945		0		68		0
7240		11898		110190		32.275		162702		0		65		0
7241.01		11876		110609		32.2143		163174		0		65		0
7242		11873		109719		32.4195		162353		0		65		0
7243		11860		110161		32.187		162448		0		65		0
7244		11854		110001		32.2213		162294		0		65		0
7245		11858		110762		32.149		163243		0		67		0
7246		11842		109812		32.2882		162176		0		66		0
7247		11836		110252		32.2531		162741		0		67		0
7248		11825		110000		32.2914		162461		0		65		0
7249		11819		110235		32.3527		162956		0		67		0
