# XAS / LUCIA / SOLEIL : 
# Date : jeu. 27 mai 2021
#
# TARGET : GFL_PL_780_11_07_test100prct2
# Total number of scan(s) : 10
# Scan N° : 7
# Coordinates : 
#               Horizontal : -10280.1
#               Vertical : -11510.7
#               Depth : 13840
#               Rotation : 4.996
# ROI window : 
#               ROI_inf : 1295
#               ROI_sup : 1365
#
# Start of this scan : 12:11:10
# End of this scan : 12:11:38
#
# I0 current at start (µA) : 0
# USER COMMENTS : 
# 
# EXPERIMENTAL CONFIGURATION : 
# Undulator Harmonic : 21       Offset : nan
# Undulator Polarization : 0
# Low pass filter angle (°) : 0.319447         translation (µm) : -147
# Monochromator Crystal : 3: Si311
#
# SCAN : 
# Range		From(eV)	To(eV)		Step(eV)	Time(sec)
## 1		7110		7117		1		1
#
# Energy	Io		FY		DeadTime		FY_c		TEY		It		Ctr4
7110		13264		6755		6.92557		7257.63		0		75		0
7111		13218		9621		7.5208		10403.4		0		76		0
7112		13155		17581		9.44352		19414.4		0		76		0
7113		13119		17707		9.35632		19534.7		0		76		0
7114		13088		18436		9.32957		20333		0		76		0
7115		13062		16287		8.99901		17897.6		0		74		0
7116		13048		18992		9.58976		21006.5		0		74		0
