# XAS / LUCIA / SOLEIL : 
# Date : jeu. 27 mai 2021
#
# TARGET : GFL_DR21_01_06_pt1
# Total number of scan(s) : 1
# Scan N° : 1
# Coordinates : 
#               Horizontal : 3104.46
#               Vertical : -5803.05
#               Depth : 13839.8
#               Rotation : 4.996
# ROI window : 
#               ROI_inf : 1295
#               ROI_sup : 1365
#
# Start of this scan : 09:52:46
# End of this scan : 10:13:25
#
# I0 current at start (µA) : 0
# USER COMMENTS : 
# 
# EXPERIMENTAL CONFIGURATION : 
# Undulator Harmonic : 21       Offset : nan
# Undulator Polarization : 0
# Low pass filter angle (°) : 0.319447         translation (µm) : -147
# Monochromator Crystal : 3: Si311
#
# SCAN : 
# Range		From(eV)	To(eV)		Step(eV)	Time(sec)
## 1		7070		7105		2		1.5
## 2		7105.1		7121		0.1		1.5
## 3		7121.5		7160		0.5		1.5
## 4		7161		7250		1		1.5
#
# Energy	Io		FY		DeadTime		FY_c		TEY		It		Ctr4
7069.99		20735		1860		4.30667		1943.71		0		117		0
7072		20592		1795		4.00719		1869.93		0		116		0
7074		20499		1824		4.24762		1904.91		0		117		0
7076		20407		1969		4.18447		2054.99		0		116		0
7078		20370		2028		4.12329		2115.22		0		113		0
7080		20336		2054		4.22705		2144.66		0		115		0
7082		20346		2099		4.17975		2190.56		0		116		0
7084		20310		2241		4.29246		2341.51		0		113		0
7086		20309		2265		4.00988		2359.62		0		115		0
7088		20288		2447		4.33461		2557.87		0		116		0
7090		20239		2554		4.23211		2666.86		0		113		0
7092		20200		2705		4.18526		2823.16		0		116		0
7094		20147		2809		4.10724		2929.31		0		115		0
7096		20119		3081		4.19185		3215.8		0		115		0
7098		20070		3328		4.18852		3473.49		0		114		0
7100		20063		3610		4.45577		3778.35		0		117		0
7102		20044		4018		4.50594		4207.59		0		116		0
7104		19970		4423		4.43964		4628.49		0		114		0
7105.1		19924		4812		4.4346		5035.3		0		114		0
7105.2		19922		4849		4.64286		5085.09		0		116		0
7105.3		19922		4876		4.58031		5110.06		0		116		0
7105.41		19910		4828		4.53259		5057.22		0		115		0
7105.51		19906		4864		4.50667		5093.55		0		116		0
7105.61		19894		5145		4.47703		5386.14		0		113		0
7105.71		19894		4985		4.50498		5220.17		0		115		0
7105.8		19875		5053		4.51241		5291.79		0		115		0
7105.9		19881		5111		4.44173		5348.57		0		114		0
7105.99		19878		5070		4.54575		5311.44		0		116		0
7106.09		19870		5097		4.55328		5340.15		0		117		0
7106.19		19877		5207		4.52009		5453.5		0		119		0
7106.29		19867		5337		4.59507		5594.05		0		115		0
7106.4		19869		5185		4.49647		5429.12		0		117		0
7106.5		19873		5381		4.4439		5631.25		0		117		0
7106.6		19843		5235		4.56292		5485.29		0		114		0
7106.7		19861		5413		4.56693		5672.04		0		116		0
7106.8		19851		5556		4.48809		5817.08		0		113		0
7106.9		19838		5632		4.47503		5895.84		0		114		0
7107		19853		5532		4.57965		5797.51		0		116		0
7107.1		19826		5597		4.53257		5862.73		0		115		0
7107.2		19827		5749		4.39825		6013.49		0		117		0
7107.3		19809		5651		4.62974		5925.33		0		116		0
7107.41		19805		5714		4.53436		5985.4		0		117		0
7107.51		19805		5760		4.53805		6033.82		0		115		0
7107.61		19808		5748		4.60252		6025.32		0		117		0
7107.71		19817		5883		4.53035		6162.17		0		115		0
7107.8		19821		5928		4.65698		6217.55		0		117		0
7107.9		19778		6062		4.69679		6360.75		0		115		0
7107.99		19800		6074		4.66012		6370.89		0		117		0
7108.09		19791		6076		4.63063		6371.02		0		117		0
7108.19		19785		6200		4.65517		6502.71		0		115		0
7108.29		19778		6230		4.52474		6525.25		0		116		0
7108.4		19764		6352		4.65229		6661.93		0		114		0
7108.5		19763		6550		4.63744		6868.52		0		116		0
7108.6		19783		6435		4.79686		6759.23		0		118		0
7108.7		19787		6568		4.65199		6888.45		0		117		0
7108.8		19769		6586		4.73873		6913.62		0		116		0
7108.9		19746		6682		4.6503		7007.89		0		113		0
7109		19759		6823		4.71209		7160.4		0		115		0
7109.1		19761		6856		4.7709		7199.48		0		116		0
7109.2		19756		6930		4.56256		7261.3		0		114		0
7109.3		19748		7045		4.67198		7390.27		0		116		0
7109.41		19753		7273		4.85687		7644.27		0		115		0
7109.51		19739		7386		4.72503		7752.3		0		114		0
7109.61		19723		7450		4.76538		7822.79		0		114		0
7109.71		19722		7652		4.73937		8032.7		0		111		0
7109.8		19726		7731		4.72247		8114.19		0		113		0
7109.9		19725		7886		4.87209		8289.89		0		112		0
7109.99		19722		7953		4.9258		8365.05		0		112		0
7110.1		19723		8064		5.01897		8490.12		0		115		0
7110.19		19714		8390		4.75618		8808.97		0		112		0
7110.29		19710		8479		5.17397		8941.64		0		115		0
7110.4		19723		8803		5.05406		9271.59		0		114		0
7110.5		19698		9025		5.01551		9501.55		0		113		0
7110.6		19705		9324		4.9011		9804.53		0		114		0
7110.7		19689		9724		5.11998		10248.7		0		112		0
7110.8		19680		10336		5.37003		10922.5		0		110		0
7110.9		19679		10702		5.29225		11300		0		110		0
7111		19680		11188		5.31725		11816.3		0		113		0
7111.1		19678		11931		5.48597		12623.5		0		113		0
7111.2		19684		12687		5.33875		13402.5		0		113		0
7111.3		19684		13185		5.63002		13971.6		0		112		0
7111.41		19678		14400		5.87251		15298.4		0		113		0
7111.51		19681		14964		6.01683		15922		0		111		0
7111.6		19667		16109		6.04181		17144.9		0		113		0
7111.71		19675		17276		6.33888		18445.2		0		111		0
7111.8		19673		18530		6.5895		19837.2		0		112		0
7111.9		19642		19190		6.63789		20554.4		0		111		0
7111.99		19651		20079		6.58714		21494.9		0		111		0
7112.1		19652		21270		6.81901		22826.5		0		111		0
7112.19		19647		21577		6.83759		23160.6		0		112		0
7112.29		19652		21767		6.93585		23389.2		0		113		0
7112.4		19640		21948		6.79622		23548.4		0		111		0
7112.5		19637		21578		6.87599		23171.3		0		113		0
7112.6		19633		21383		6.75296		22931.6		0		113		0
7112.7		19622		20967		6.70381		22473.6		0		111		0
7112.8		19625		20376		6.71836		21843.5		0		113		0
7112.9		19616		20420		6.54409		21849.9		0		110		0
7113		19614		19974		6.51347		21365.6		0		111		0
7113.1		19610		19879		6.71938		21311		0		111		0
7113.2		19596		19721		6.65502		21127		0		111		0
7113.3		19604		20022		6.54865		21425.1		0		112		0
7113.41		19619		20023		6.65585		21450.7		0		113		0
7113.51		19618		20265		6.59541		21695.9		0		113		0
7113.61		19609		20308		6.67433		21760.4		0		111		0
7113.7		19607		20506		6.69306		21976.9		0		114		0
7113.8		19621		20682		6.68719		22164.2		0		112		0
7113.9		19600		20631		6.66477		22104.2		0		112		0
7113.99		19599		20554		6.63198		22014		0		114		0
7114.1		19618		20510		6.60783		21961.2		0		113		0
7114.19		19607		20246		6.51908		21657.9		0		114		0
7114.3		19606		20107		6.76378		21565.7		0		115		0
7114.4		19597		19611		6.53884		20983		0		114		0
7114.5		19587		19146		6.49717		20476.4		0		116		0
7114.6		19586		18878		6.45105		20179.8		0		113		0
7114.7		19589		19020		6.39398		20319.2		0		115		0
7114.8		19579		18721		6.41261		20003.8		0		113		0
7114.9		19583		18880		6.33041		20156		0		113		0
7115		19588		18454		6.39138		19714		0		110		0
7115.1		19590		18865		6.34071		20142.2		0		113		0
7115.2		19596		18998		6.47827		20314		0		114		0
7115.31		19582		18995		6.44371		20303.3		0		114		0
7115.41		19577		19613		6.48301		20972.7		0		115		0
7115.51		19570		19843		6.62061		21249.9		0		114		0
7115.61		19590		20313		6.6179		21752.6		0		116		0
7115.7		19574		20586		6.65165		22052.9		0		113		0
7115.8		19587		21277		6.63437		22788.9		0		114		0
7115.9		19556		21307		7.02722		22917.5		0		114		0
7115.99		19551		22621		6.79605		24270.4		0		113		0
7116.09		19556		23444		6.96563		25199.3		0		113		0
7116.19		19555		24150		7.29474		26050.3		0		115		0
7116.3		19565		25143		7.37997		27146.4		0		111		0
7116.4		19554		26112		7.56634		28249.4		0		116		0
7116.5		19547		27314		7.68806		29588.8		0		113		0
7116.6		19550		28806		7.91957		31283.5		0		113		0
7116.7		19542		29859		8.05884		32476.2		0		116		0
7116.8		19544		31333		8.31543		34174.8		0		115		0
7116.9		19548		33142		8.45092		36201.3		0		113		0
7117		19543		34786		8.82089		38151.3		0		114		0
7117.1		19540		36860		9.07332		40538.2		0		113		0
7117.2		19529		38421		9.37997		42397.9		0		113		0
7117.31		19527		40963		9.81372		45420.4		0		115		0
7117.41		19536		42525		9.94095		47219		0		119		0
7117.51		19527		44990		10.1875		50093.2		0		110		0
7117.61		19518		46857		10.6112		52419.3		0		115		0
7117.7		19536		49266		10.8456		55259.2		0		116		0
7117.8		19540		51369		11.3504		57946.1		0		113		0
7117.9		19558		54441		11.8352		61749.1		0		115		0
7117.99		19552		57228		12.2889		65246		0		109		0
7118.09		19564		60084		12.9186		68997.5		0		113		0
7118.19		19532		63502		13.3442		73280.7		0		115		0
7118.3		19538		67050		13.6381		77638.4		0		115		0
7118.4		19532		70543		14.2591		82274.7		0		113		0
7118.5		19537		73783		14.8009		86600.7		0		117		0
7118.6		19542		77546		15.4168		91680.2		0		116		0
7118.7		19526		80378		16.1727		95885.2		0		114		0
7118.8		19547		84312		16.5668		101053		0		117		0
7118.9		19541		87986		17.1855		106245		0		114		0
7119		19536		91214		17.9648		111189		0		114		0
7119.1		19529		94917		18.6062		116615		0		114		0
7119.21		19511		99465		19.1023		122952		0		114		0
7119.31		19516		102210		19.5874		127107		0		115		0
7119.41		19519		105354		20.3824		132325		0		116		0
7119.5		19503		107223		20.7793		135347		0		117		0
7119.61		19509		110819		21.2575		140736		0		116		0
7119.7		19520		113445		21.7926		145057		0		114		0
7119.8		19526		117015		22.3966		150786		0		116		0
7119.89		19525		119590		22.847		155004		0		116		0
7119.99		19506		122019		23.4146		159324		0		114		0
7120.09		19513		124878		24.188		164721		0		115		0
7120.19		19505		127552		24.3753		168665		0		116		0
7120.3		19514		129889		24.8337		172802		0		114		0
7120.4		19507		132007		25.4386		177045		0		114		0
7120.5		19514		134000		25.8514		180718		0		118		0
7120.6		19507		136199		26.1186		184348		0		116		0
7120.7		19485		138230		26.6123		188356		0		115		0
7120.8		19486		140174		26.9064		191773		0		114		0
7120.9		19491		141340		27.3346		194508		0		115		0
7121.5		19459		150405		29.165		212332		0		115		0
7121.99		19446		157202		30.6507		226681		0		113		0
7122.5		19425		164146		32.2472		242272		0		113		0
7123		19403		171210		34.0027		259420		0		112		0
7123.5		19384		177369		35.9041		276725		0		114		0
7124		19375		184742		37.4785		295486		0		113		0
7124.5		19369		191117		39.2716		314708		0		115		0
7125		19271		195296		40.5911		328732		0		113		0
7125.5		19158		197050		41.5046		336864		0		114		0
7126		19217		200717		42.2746		347710		0		116		0
7126.5		19218		201485		42.7843		352150		0		113		0
7127		19196		201218		42.6548		350889		0		114		0
7127.5		19171		200905		42.7581		350975		0		113		0
7127.99		19143		201762		42.4509		350591		0		115		0
7128.5		19124		200972		42.3498		348606		0		112		0
7129		19107		200118		42.238		346452		0		115		0
7129.5		19123		200235		42.0012		345240		0		112		0
7130		19100		199187		41.8776		342703		0		114		0
7130.49		19079		199151		41.4467		340119		0		112		0
7130.99		19080		198106		41.2807		337378		0		115		0
7131.5		19081		197011		40.809		332839		0		111		0
7131.99		19088		195246		40.5919		328652		0		114		0
7132.49		19057		192969		40.2845		323147		0		112		0
7133		19052		192518		39.7335		319444		0		113		0
7133.5		19050		191633		39.37		316069		0		113		0
7134		19050		190578		39.0361		312608		0		112		0
7134.49		19043		189291		38.8062		309330		0		113		0
7135		19024		188399		38.3194		305443		0		115		0
7135.5		19029		187956		38.2279		304274		0		111		0
7135.99		19014		186626		38.1803		301888		0		112		0
7136.49		19021		186474		37.8034		299814		0		112		0
7137		18876		185153		37.2557		295091		0		113		0
7137.5		18842		184845		37.1654		294177		0		111		0
7137.99		18993		183607		37.5324		293924		0		113		0
7138.5		18971		184263		37.0323		292631		0		112		0
7139		18988		183309		36.857		290308		0		115		0
7139.5		19000		183307		36.8633		290333		0		114		0
7140		18990		181885		36.6255		287000		0		113		0
7140.49		18997		182194		36.5565		287175		0		113		0
7141		18999		181499		36.5007		285828		0		114		0
7141.5		18981		180425		36.3489		283460		0		113		0
7141.99		18993		179849		36.2289		282023		0		113		0
7142.5		18979		178895		35.9748		279413		0		114		0
7142.99		18952		178302		35.8319		277867		0		112		0
7143.5		18826		176492		35.4562		273445		0		112		0
7144		18852		176740		35.0933		272299		0		113		0
7144.49		18922		176450		35.1215		271970		0		111		0
7144.99		18930		175007		34.8389		268576		0		113		0
7145.5		18926		174074		34.8467		267176		0		112		0
7146		18937		173784		34.5905		265686		0		113		0
7146.49		18925		171862		34.3713		261870		0		111		0
7146.99		18917		171128		34.0413		259447		0		112		0
7147.5		18910		171663		33.623		258618		0		112		0
7147.99		18887		169655		33.5711		255393		0		111		0
7148.49		18889		168971		33.5538		254297		0		112		0
7149		18865		168534		33.1928		252269		0		111		0
7149.5		18871		167862		33.0595		250763		0		114		0
7150		18871		166830		32.9001		248629		0		112		0
7150.49		18869		167046		32.5153		247532		0		112		0
7150.99		18833		165389		32.6301		245494		0		113		0
7151.5		18847		166264		32.6535		246879		0		113		0
7151.99		18843		165539		32.3946		244861		0		114		0
7152.49		18831		165241		32.3327		244196		0		112		0
7153		18826		165421		32.3955		244689		0		114		0
7153.5		18853		164853		32.5677		244472		0		113		0
7154		18830		164794		32.3604		243635		0		112		0
7154.5		18830		165573		32.3775		244849		0		111		0
7154.99		18837		165453		32.3885		244711		0		112		0
7155.5		18808		165263		32.199		243747		0		110		0
7156		18826		164613		32.5135		243920		0		113		0
7156.5		18825		165359		32.6502		245523		0		111		0
7156.99		18830		166326		32.4587		246258		0		113		0
7157.5		18853		166129		32.7416		247001		0		109		0
7157.99		18616		165136		32.4393		244426		0		114		0
7158.5		18745		166156		32.4771		246073		0		113		0
7158.99		18752		166310		32.6925		247090		0		114		0
7159.5		18770		167155		32.6291		248112		0		112		0
7159.99		18766		167204		33.0288		249666		0		114		0
7161.01		18751		167463		33.0496		250130		0		110		0
7162.01		18744		169143		33.124		252920		0		112		0
7163		18731		169283		33.2102		253456		0		110		0
7164.01		18718		170260		33.6316		256538		0		113		0
7165		18707		170831		33.7654		257918		0		112		0
7166.01		18707		171957		33.8582		259982		0		115		0
7167.01		18672		172044		34.0471		260859		0		111		0
7168.01		18640		172993		34.1332		262641		0		112		0
7169		18629		172522		34.3197		262669		0		112		0
7170		18590		173166		34.6466		264968		0		111		0
7171		18602		174856		34.7515		267985		0		114		0
7172.01		18594		175579		34.9428		269884		0		113		0
7173		18570		176112		35.1268		271471		0		113		0
7174		18571		176543		35.0623		271865		0		114		0
7175		18557		176970		35.2907		273485		0		115		0
7176.01		18550		177581		35.2217		274136		0		114		0
7177		18551		176966		35.3293		273642		0		114		0
7178.01		18530		176069		35.3715		272433		0		113		0
7179		18544		176503		35.2558		272616		0		114		0
7180		18522		177047		35.1307		272929		0		113		0
7181		18510		177286		35.4427		274618		0		113		0
7182.01		18483		176660		35.2488		272829		0		115		0
7183		18481		177851		35.1981		274454		0		115		0
7184.01		18457		177189		35.2921		273829		0		117		0
7185		18451		176164		35.3035		272293		0		116		0
7186		18423		176551		35.2433		272638		0		114		0
7187		18401		176748		35.0834		272269		0		116		0
7188.01		18395		176643		35.2696		272890		0		112		0
7189		18406		176366		35.0577		271574		0		115		0
7190		18365		176263		34.9134		270813		0		114		0
7191		18347		176041		34.8566		270236		0		116		0
7192.01		18329		175091		34.9078		268989		0		114		0
7193		18289		174814		34.7385		267867		0		115		0
7194		18331		175521		34.5899		268339		0		113		0
7195		18314		173621		34.6863		265826		0		111		0
7196		18308		174668		34.5059		266693		0		113		0
7197		18329		173995		34.6486		266245		0		112		0
7198		18314		173306		34.6915		265365		0		113		0
7199		18288		173832		34.4743		265288		0		112		0
7200		18300		172857		34.3892		263458		0		113		0
7201		18259		173246		34.3714		263979		0		113		0
7202		18257		172869		34.1487		262514		0		113		0
7203		18254		172091		34.2152		261597		0		111		0
7204		18233		172219		34.028		261049		0		114		0
7205		18227		171488		33.9744		259730		0		113		0
7206		18204		171717		33.751		259200		0		113		0
7207		18192		171962		33.8594		259995		0		111		0
7208		18197		172063		33.7249		259619		0		115		0
7209		18164		170943		33.6483		257632		0		112		0
7210.01		18144		171125		33.6425		257883		0		115		0
7211		18130		170831		33.6917		257631		0		113		0
7212.01		18118		170158		33.6268		256366		0		115		0
7213		18079		170808		33.3624		256324		0		114		0
7214		18073		170077		33.4992		255752		0		113		0
7215		18046		169727		33.386		254792		0		114		0
7216		18027		169996		33.3493		255055		0		112		0
7217		18010		169795		33.2397		254335		0		115		0
7218		17990		169813		33.4291		255086		0		112		0
7219		17990		170451		33.4771		256229		0		113		0
7220		17996		169425		33.3664		254264		0		110		0
7221		17971		169614		33.2321		254035		0		112		0
7222.01		17985		169331		33.2418		253648		0		113		0
7223		17979		169112		33.2285		253270		0		110		0
7224		17949		169310		33.2596		253684		0		112		0
7225		17948		169883		33.1639		254179		0		109		0
7226		17926		168290		33.3425		252470		0		112		0
7227.01		17909		169656		32.9547		253047		0		111		0
7227.99		17902		169320		33.0282		252823		0		108		0
7229.01		17888		169131		33.0485		252617		0		112		0
7230		17900		169103		32.9382		252160		0		111		0
7231.02		17907		169574		33.1244		253566		0		112		0
7232		17911		167984		32.9927		250695		0		111		0
7233.01		17907		169490		33.0085		253002		0		110		0
7234		17919		168446		33.2301		252278		0		112		0
7235		17868		168673		33.071		252018		0		112		0
7236		17871		169399		33.1657		253461		0		113		0
7237		17861		168215		33.0766		251355		0		112		0
7238		17823		168849		32.9248		251731		0		113		0
7239		17805		168768		33.09		252231		0		110		0
7240		17783		168844		32.9687		251888		0		110		0
7241		17806		168590		33.1593		252227		0		110		0
7242		17794		169761		32.9882		253330		0		114		0
7243		17755		169106		33.0304		252511		0		112		0
7244		17734		168813		33.0295		252071		0		114		0
7245		17726		169136		33.1182		252888		0		110		0
7246		17707		169026		32.9408		252055		0		113		0
7247		17694		168046		32.94		250590		0		110		0
7248		17691		168810		33.2425		252870		0		112		0
7249		17664		169023		33.0228		252359		0		110		0
